/muse/eeg,829.070068359375,829.070068359375,832.3600463867188,807.6853637695312
/muse/eeg,838.9400024414062,827.4251098632812,834.0050048828125,817.5552368164062
/muse/eeg,842.2299194335938,820.84521484375,842.2299194335938,801.1054077148438
/muse/eeg,853.7448120117188,832.3600463867188,834.0050048828125,817.5552368164062
/muse/eeg,827.4251098632812,822.4901733398438,838.9400024414062,796.1704711914062
/muse/eeg,863.6146850585938,827.4251098632812,838.9400024414062,838.9400024414062
/muse/eeg,824.1351318359375,834.0050048828125,825.7801513671875,827.4251098632812
/muse/eeg,810.9752807617188,822.4901733398438,838.9400024414062,802.7504272460938
/muse/eeg,847.1648559570312,829.070068359375,843.8749389648438,784.6556396484375
/muse/eeg,857.0347290039062,840.5849609375,832.3600463867188,806.0403442382812
/muse/eeg,820.84521484375,842.2299194335938,827.4251098632812,797.8154907226562
/muse/eeg,814.2652587890625,838.9400024414062,827.4251098632812,797.8154907226562
/muse/eeg,814.2652587890625,837.2949829101562,827.4251098632812,807.6853637695312
/muse/eeg,824.1351318359375,830.715087890625,835.6500244140625,794.5255126953125
/muse/eeg,858.6797485351562,832.3600463867188,837.2949829101562,807.6853637695312
/muse/eeg,835.6500244140625,838.9400024414062,827.4251098632812,804.3953857421875
/muse/eeg,843.8749389648438,834.0050048828125,832.3600463867188,834.0050048828125
/muse/eeg,845.5198974609375,829.070068359375,840.5849609375,802.7504272460938
/muse/eeg,852.0997924804688,835.6500244140625,832.3600463867188,824.1351318359375
/muse/eeg,850.454833984375,830.715087890625,835.6500244140625,817.5552368164062
/muse/eeg,845.5198974609375,835.6500244140625,825.7801513671875,827.4251098632812
/muse/eeg,814.2652587890625,832.3600463867188,822.4901733398438,815.9102783203125
/muse/eeg,830.715087890625,825.7801513671875,838.9400024414062,806.0403442382812
/muse/eeg,847.1648559570312,835.6500244140625,830.715087890625,832.3600463867188
/muse/eeg,852.0997924804688,824.1351318359375,843.8749389648438,807.6853637695312
/muse/eeg,870.194580078125,840.5849609375,830.715087890625,824.1351318359375
/muse/eeg,817.5552368164062,838.9400024414062,822.4901733398438,810.9752807617188
/muse/eeg,824.1351318359375,829.070068359375,832.3600463867188,827.4251098632812
/muse/eeg,825.7801513671875,834.0050048828125,834.0050048828125,801.1054077148438
/muse/eeg,855.3897705078125,827.4251098632812,847.1648559570312,797.8154907226562
/muse/eeg,870.194580078125,840.5849609375,837.2949829101562,801.1054077148438
/muse/eeg,868.5496215820312,834.0050048828125,842.2299194335938,797.8154907226562
/muse/eeg,883.3544311523438,838.9400024414062,837.2949829101562,786.3005981445312
/muse/eeg,858.6797485351562,834.0050048828125,838.9400024414062,768.205810546875
/muse/eeg,912.964111328125,832.3600463867188,857.0347290039062,784.6556396484375
/muse/eeg,865.2596435546875,853.7448120117188,827.4251098632812,791.2355346679688
/muse/eeg,819.2001953125,830.715087890625,838.9400024414062,791.2355346679688
/muse/eeg,824.1351318359375,834.0050048828125,840.5849609375,774.7857666015625
/muse/eeg,835.6500244140625,837.2949829101562,832.3600463867188,806.0403442382812
/muse/eeg,801.1054077148438,832.3600463867188,835.6500244140625,779.720703125
/muse/eeg,806.0403442382812,824.1351318359375,845.5198974609375,789.590576171875
/muse/eeg,815.9102783203125,834.0050048828125,835.6500244140625,797.8154907226562
/muse/eeg,819.2001953125,825.7801513671875,847.1648559570312,789.590576171875
/muse/eeg,848.8098754882812,837.2949829101562,845.5198974609375,794.5255126953125
/muse/eeg,804.3953857421875,842.2299194335938,832.3600463867188,787.945556640625
/muse/eeg,814.2652587890625,830.715087890625,843.8749389648438,799.46044921875
/muse/eeg,802.7504272460938,830.715087890625,842.2299194335938,776.4307250976562
/muse/eeg,822.4901733398438,835.6500244140625,840.5849609375,783.0106201171875
/muse/eeg,801.1054077148438,842.2299194335938,835.6500244140625,768.205810546875
/muse/eeg,825.7801513671875,834.0050048828125,843.8749389648438,796.1704711914062
/muse/eeg,822.4901733398438,837.2949829101562,843.8749389648438,776.4307250976562
/muse/eeg,820.84521484375,842.2299194335938,835.6500244140625,787.945556640625
/muse/eeg,820.84521484375,837.2949829101562,840.5849609375,786.3005981445312
/muse/eeg,824.1351318359375,843.8749389648438,830.715087890625,801.1054077148438
/muse/eeg,784.6556396484375,835.6500244140625,830.715087890625,792.8805541992188
/muse/eeg,806.0403442382812,824.1351318359375,847.1648559570312,769.850830078125
/muse/eeg,842.2299194335938,830.715087890625,843.8749389648438,801.1054077148438
/muse/eeg,822.4901733398438,843.8749389648438,837.2949829101562,789.590576171875
/muse/eeg,806.0403442382812,840.5849609375,830.715087890625,807.6853637695312
/muse/eeg,789.590576171875,829.070068359375,835.6500244140625,787.945556640625
/muse/eeg,801.1054077148438,835.6500244140625,832.3600463867188,819.2001953125
/muse/eeg,794.5255126953125,820.84521484375,847.1648559570312,796.1704711914062
/muse/eeg,830.715087890625,840.5849609375,840.5849609375,820.84521484375
/muse/eeg,802.7504272460938,842.2299194335938,835.6500244140625,829.070068359375
/muse/eeg,817.5552368164062,830.715087890625,850.454833984375,830.715087890625
/muse/eeg,830.715087890625,837.2949829101562,845.5198974609375,837.2949829101562
/muse/eeg,794.5255126953125,835.6500244140625,840.5849609375,835.6500244140625
/muse/eeg,822.4901733398438,834.0050048828125,843.8749389648438,852.0997924804688
/muse/eeg,787.945556640625,847.1648559570312,825.7801513671875,852.0997924804688
/muse/eeg,779.720703125,827.4251098632812,840.5849609375,853.7448120117188
/muse/eeg,842.2299194335938,832.3600463867188,847.1648559570312,855.3897705078125
/muse/eeg,840.5849609375,835.6500244140625,840.5849609375,891.579345703125
/muse/eeg,835.6500244140625,830.715087890625,853.7448120117188,830.715087890625
/muse/eeg,829.070068359375,850.454833984375,832.3600463867188,843.8749389648438
/muse/eeg,801.1054077148438,838.9400024414062,838.9400024414062,827.4251098632812
/muse/eeg,809.330322265625,838.9400024414062,837.2949829101562,819.2001953125
/muse/eeg,832.3600463867188,834.0050048828125,842.2299194335938,825.7801513671875
/muse/eeg,802.7504272460938,837.2949829101562,837.2949829101562,801.1054077148438
/muse/eeg,835.6500244140625,830.715087890625,847.1648559570312,809.330322265625
/muse/eeg,827.4251098632812,843.8749389648438,827.4251098632812,812.6203002929688
/muse/eeg,820.84521484375,825.7801513671875,842.2299194335938,817.5552368164062
/muse/eeg,843.8749389648438,840.5849609375,835.6500244140625,815.9102783203125
/muse/eeg,835.6500244140625,827.4251098632812,838.9400024414062,834.0050048828125
/muse/eeg,857.0347290039062,827.4251098632812,848.8098754882812,809.330322265625
/muse/eeg,852.0997924804688,834.0050048828125,834.0050048828125,815.9102783203125
/muse/eeg,853.7448120117188,824.1351318359375,842.2299194335938,809.330322265625
/muse/eeg,860.32470703125,838.9400024414062,832.3600463867188,820.84521484375
/muse/eeg,827.4251098632812,830.715087890625,827.4251098632812,817.5552368164062
/muse/eeg,824.1351318359375,824.1351318359375,835.6500244140625,791.2355346679688
/muse/eeg,863.6146850585938,825.7801513671875,840.5849609375,810.9752807617188
/muse/eeg,843.8749389648438,830.715087890625,832.3600463867188,786.3005981445312
/muse/eeg,860.32470703125,822.4901733398438,848.8098754882812,789.590576171875
/muse/eeg,861.9697265625,838.9400024414062,835.6500244140625,783.0106201171875
/muse/eeg,847.1648559570312,834.0050048828125,834.0050048828125,807.6853637695312
/muse/eeg,848.8098754882812,825.7801513671875,847.1648559570312,778.07568359375
/muse/eeg,857.0347290039062,838.9400024414062,842.2299194335938,787.945556640625
/muse/eeg,842.2299194335938,834.0050048828125,840.5849609375,801.1054077148438
/muse/eeg,838.9400024414062,825.7801513671875,847.1648559570312,789.590576171875
/muse/eeg,858.6797485351562,832.3600463867188,845.5198974609375,796.1704711914062
/muse/eeg,829.070068359375,834.0050048828125,838.9400024414062,786.3005981445312
/muse/eeg,860.32470703125,829.070068359375,847.1648559570312,820.84521484375
/muse/eeg,837.2949829101562,842.2299194335938,832.3600463867188,817.5552368164062
/muse/eeg,797.8154907226562,829.070068359375,838.9400024414062,796.1704711914062
/muse/eeg,829.070068359375,825.7801513671875,853.7448120117188,766.5608520507812
/muse/eeg,850.454833984375,837.2949829101562,843.8749389648438,794.5255126953125
/muse/eeg,802.7504272460938,845.5198974609375,820.84521484375,794.5255126953125
/muse/eeg,755.0459594726562,827.4251098632812,825.7801513671875,799.46044921875
/muse/eeg,802.7504272460938,820.84521484375,842.2299194335938,797.8154907226562
/muse/eeg,814.2652587890625,824.1351318359375,838.9400024414062,786.3005981445312
/muse/eeg,858.6797485351562,824.1351318359375,855.3897705078125,787.945556640625
/muse/eeg,838.9400024414062,840.5849609375,832.3600463867188,794.5255126953125
/muse/eeg,817.5552368164062,830.715087890625,838.9400024414062,812.6203002929688
/muse/eeg,819.2001953125,827.4251098632812,845.5198974609375,783.0106201171875
/muse/eeg,853.7448120117188,834.0050048828125,843.8749389648438,799.46044921875
/muse/eeg,817.5552368164062,838.9400024414062,832.3600463867188,786.3005981445312
/muse/eeg,820.84521484375,835.6500244140625,837.2949829101562,797.8154907226562
/muse/eeg,791.2355346679688,840.5849609375,827.4251098632812,786.3005981445312
/muse/eeg,804.3953857421875,825.7801513671875,845.5198974609375,768.205810546875
/muse/eeg,840.5849609375,840.5849609375,837.2949829101562,794.5255126953125
/muse/eeg,815.9102783203125,834.0050048828125,838.9400024414062,774.7857666015625
/muse/eeg,842.2299194335938,829.070068359375,850.454833984375,781.3656616210938
/muse/eeg,819.2001953125,835.6500244140625,835.6500244140625,784.6556396484375
/muse/eeg,848.8098754882812,824.1351318359375,853.7448120117188,809.330322265625
/muse/eeg,835.6500244140625,840.5849609375,838.9400024414062,807.6853637695312
/muse/eeg,810.9752807617188,835.6500244140625,837.2949829101562,815.9102783203125
/muse/eeg,817.5552368164062,829.070068359375,838.9400024414062,802.7504272460938
/muse/eeg,814.2652587890625,830.715087890625,834.0050048828125,822.4901733398438
/muse/eeg,819.2001953125,820.84521484375,848.8098754882812,801.1054077148438
/muse/eeg,827.4251098632812,834.0050048828125,834.0050048828125,814.2652587890625
/muse/eeg,817.5552368164062,829.070068359375,842.2299194335938,827.4251098632812
/muse/eeg,825.7801513671875,825.7801513671875,848.8098754882812,817.5552368164062
/muse/eeg,850.454833984375,827.4251098632812,845.5198974609375,820.84521484375
/muse/eeg,824.1351318359375,834.0050048828125,842.2299194335938,806.0403442382812
/muse/eeg,852.0997924804688,829.070068359375,843.8749389648438,827.4251098632812
/muse/eeg,824.1351318359375,835.6500244140625,827.4251098632812,809.330322265625
/muse/eeg,807.6853637695312,829.070068359375,835.6500244140625,810.9752807617188
/muse/eeg,837.2949829101562,822.4901733398438,847.1648559570312,796.1704711914062
/muse/eeg,840.5849609375,830.715087890625,835.6500244140625,824.1351318359375
/muse/eeg,853.7448120117188,822.4901733398438,852.0997924804688,809.330322265625
/muse/eeg,858.6797485351562,837.2949829101562,837.2949829101562,822.4901733398438
/muse/eeg,848.8098754882812,832.3600463867188,837.2949829101562,834.0050048828125
/muse/eeg,847.1648559570312,829.070068359375,842.2299194335938,814.2652587890625
/muse/eeg,871.839599609375,834.0050048828125,843.8749389648438,832.3600463867188
/muse/eeg,848.8098754882812,832.3600463867188,842.2299194335938,824.1351318359375
/muse/eeg,884.9994506835938,829.070068359375,850.454833984375,842.2299194335938
/muse/eeg,845.5198974609375,843.8749389648438,827.4251098632812,835.6500244140625
/muse/eeg,822.4901733398438,830.715087890625,840.5849609375,832.3600463867188
/muse/eeg,853.7448120117188,837.2949829101562,838.9400024414062,820.84521484375
/muse/eeg,840.5849609375,837.2949829101562,832.3600463867188,835.6500244140625
/muse/eeg,834.0050048828125,837.2949829101562,835.6500244140625,822.4901733398438
/muse/eeg,829.070068359375,830.715087890625,840.5849609375,806.0403442382812
/muse/eeg,857.0347290039062,834.0050048828125,842.2299194335938,829.070068359375
/muse/eeg,829.070068359375,830.715087890625,842.2299194335938,812.6203002929688
/muse/eeg,866.9046630859375,827.4251098632812,853.7448120117188,810.9752807617188
/muse/eeg,834.0050048828125,838.9400024414062,835.6500244140625,802.7504272460938
/muse/eeg,843.8749389648438,829.070068359375,843.8749389648438,815.9102783203125
/muse/eeg,845.5198974609375,830.715087890625,845.5198974609375,792.8805541992188
/muse/eeg,855.3897705078125,835.6500244140625,845.5198974609375,814.2652587890625
/muse/eeg,832.3600463867188,834.0050048828125,842.2299194335938,802.7504272460938
/muse/eeg,843.8749389648438,832.3600463867188,847.1648559570312,807.6853637695312
/muse/eeg,850.454833984375,829.070068359375,850.454833984375,796.1704711914062
/muse/eeg,830.715087890625,837.2949829101562,837.2949829101562,796.1704711914062
/muse/eeg,850.454833984375,829.070068359375,842.2299194335938,819.2001953125
/muse/eeg,834.0050048828125,830.715087890625,838.9400024414062,807.6853637695312
/muse/eeg,848.8098754882812,825.7801513671875,848.8098754882812,809.330322265625
/muse/eeg,829.070068359375,832.3600463867188,842.2299194335938,792.8805541992188
/muse/eeg,850.454833984375,829.070068359375,845.5198974609375,822.4901733398438
/muse/eeg,820.84521484375,838.9400024414062,829.070068359375,810.9752807617188
/muse/eeg,797.8154907226562,824.1351318359375,838.9400024414062,809.330322265625
/muse/eeg,852.0997924804688,822.4901733398438,857.0347290039062,797.8154907226562
/muse/eeg,873.4845581054688,834.0050048828125,848.8098754882812,817.5552368164062
/muse/eeg,853.7448120117188,835.6500244140625,843.8749389648438,822.4901733398438
/muse/eeg,822.4901733398438,837.2949829101562,829.070068359375,815.9102783203125
/muse/eeg,825.7801513671875,829.070068359375,838.9400024414062,830.715087890625
/muse/eeg,825.7801513671875,832.3600463867188,842.2299194335938,809.330322265625
/muse/eeg,850.454833984375,829.070068359375,848.8098754882812,815.9102783203125
/muse/eeg,830.715087890625,835.6500244140625,837.2949829101562,809.330322265625
/muse/eeg,830.715087890625,829.070068359375,835.6500244140625,829.070068359375
/muse/eeg,822.4901733398438,825.7801513671875,842.2299194335938,796.1704711914062
/muse/eeg,825.7801513671875,835.6500244140625,835.6500244140625,809.330322265625
/muse/eeg,822.4901733398438,829.070068359375,842.2299194335938,806.0403442382812
/muse/eeg,837.2949829101562,837.2949829101562,840.5849609375,822.4901733398438
/muse/eeg,797.8154907226562,838.9400024414062,829.070068359375,820.84521484375
/muse/eeg,791.2355346679688,827.4251098632812,837.2949829101562,796.1704711914062
/muse/eeg,820.84521484375,829.070068359375,835.6500244140625,810.9752807617188
/muse/eeg,797.8154907226562,832.3600463867188,827.4251098632812,794.5255126953125
/muse/eeg,817.5552368164062,820.84521484375,843.8749389648438,792.8805541992188
/muse/eeg,842.2299194335938,830.715087890625,843.8749389648438,789.590576171875
/muse/eeg,858.6797485351562,830.715087890625,843.8749389648438,814.2652587890625
/muse/eeg,842.2299194335938,835.6500244140625,837.2949829101562,799.46044921875
/muse/eeg,797.8154907226562,835.6500244140625,822.4901733398438,810.9752807617188
/muse/eeg,787.945556640625,824.1351318359375,837.2949829101562,791.2355346679688
/muse/eeg,806.0403442382812,834.0050048828125,834.0050048828125,797.8154907226562
/muse/eeg,812.6203002929688,820.84521484375,847.1648559570312,784.6556396484375
/muse/eeg,827.4251098632812,834.0050048828125,837.2949829101562,779.720703125
/muse/eeg,807.6853637695312,830.715087890625,830.715087890625,804.3953857421875
/muse/eeg,806.0403442382812,825.7801513671875,840.5849609375,778.07568359375
/muse/eeg,838.9400024414062,832.3600463867188,840.5849609375,791.2355346679688
/muse/eeg,820.84521484375,835.6500244140625,835.6500244140625,783.0106201171875
/muse/eeg,842.2299194335938,832.3600463867188,838.9400024414062,802.7504272460938
/muse/eeg,814.2652587890625,837.2949829101562,825.7801513671875,797.8154907226562
/muse/eeg,783.0106201171875,827.4251098632812,834.0050048828125,791.2355346679688
/muse/eeg,835.6500244140625,824.1351318359375,840.5849609375,792.8805541992188
/muse/eeg,822.4901733398438,830.715087890625,832.3600463867188,802.7504272460938
/muse/eeg,829.070068359375,820.84521484375,845.5198974609375,787.945556640625
/muse/eeg,835.6500244140625,835.6500244140625,832.3600463867188,784.6556396484375
/muse/eeg,820.84521484375,832.3600463867188,834.0050048828125,810.9752807617188
/muse/eeg,802.7504272460938,829.070068359375,827.4251098632812,796.1704711914062
/muse/eeg,801.1054077148438,827.4251098632812,829.070068359375,807.6853637695312
/muse/eeg,784.6556396484375,817.5552368164062,837.2949829101562,784.6556396484375
/muse/eeg,848.8098754882812,812.6203002929688,855.3897705078125,792.8805541992188
/muse/eeg,832.3600463867188,834.0050048828125,830.715087890625,796.1704711914062
/muse/eeg,804.3953857421875,819.2001953125,842.2299194335938,786.3005981445312
/muse/eeg,830.715087890625,829.070068359375,835.6500244140625,802.7504272460938
/muse/eeg,804.3953857421875,824.1351318359375,837.2949829101562,797.8154907226562
/muse/eeg,812.6203002929688,825.7801513671875,837.2949829101562,794.5255126953125
/muse/eeg,799.46044921875,824.1351318359375,842.2299194335938,776.4307250976562
/muse/eeg,853.7448120117188,822.4901733398438,848.8098754882812,806.0403442382812
/muse/eeg,842.2299194335938,825.7801513671875,840.5849609375,786.3005981445312
/muse/eeg,843.8749389648438,825.7801513671875,838.9400024414062,801.1054077148438
/muse/eeg,814.2652587890625,834.0050048828125,824.1351318359375,802.7504272460938
/muse/eeg,797.8154907226562,825.7801513671875,829.070068359375,817.5552368164062
/muse/eeg,815.9102783203125,820.84521484375,842.2299194335938,792.8805541992188
/muse/eeg,840.5849609375,830.715087890625,835.6500244140625,802.7504272460938
/muse/eeg,820.84521484375,829.070068359375,830.715087890625,810.9752807617188
/muse/eeg,810.9752807617188,832.3600463867188,825.7801513671875,807.6853637695312
/muse/eeg,797.8154907226562,822.4901733398438,829.070068359375,804.3953857421875
/muse/eeg,807.6853637695312,820.84521484375,834.0050048828125,786.3005981445312
/muse/eeg,832.3600463867188,824.1351318359375,835.6500244140625,810.9752807617188
/muse/eeg,822.4901733398438,830.715087890625,835.6500244140625,794.5255126953125
/muse/eeg,812.6203002929688,832.3600463867188,829.070068359375,806.0403442382812
/muse/eeg,815.9102783203125,820.84521484375,842.2299194335938,778.07568359375
/muse/eeg,868.5496215820312,832.3600463867188,847.1648559570312,802.7504272460938
/muse/eeg,850.454833984375,835.6500244140625,840.5849609375,797.8154907226562
/muse/eeg,837.2949829101562,842.2299194335938,834.0050048828125,810.9752807617188
/muse/eeg,807.6853637695312,840.5849609375,827.4251098632812,817.5552368164062
/muse/eeg,809.330322265625,829.070068359375,838.9400024414062,797.8154907226562
/muse/eeg,843.8749389648438,829.070068359375,843.8749389648438,799.46044921875
/muse/eeg,842.2299194335938,834.0050048828125,837.2949829101562,791.2355346679688
/muse/eeg,845.5198974609375,837.2949829101562,835.6500244140625,819.2001953125
/muse/eeg,822.4901733398438,829.070068359375,840.5849609375,792.8805541992188
/muse/eeg,855.3897705078125,834.0050048828125,845.5198974609375,807.6853637695312
/muse/eeg,840.5849609375,838.9400024414062,835.6500244140625,801.1054077148438
/muse/eeg,848.8098754882812,835.6500244140625,835.6500244140625,825.7801513671875
/muse/eeg,824.1351318359375,832.3600463867188,838.9400024414062,804.3953857421875
/muse/eeg,834.0050048828125,834.0050048828125,838.9400024414062,807.6853637695312
/muse/eeg,830.715087890625,832.3600463867188,835.6500244140625,814.2652587890625
/muse/eeg,838.9400024414062,834.0050048828125,837.2949829101562,810.9752807617188
/muse/eeg,817.5552368164062,840.5849609375,825.7801513671875,829.070068359375
/muse/eeg,807.6853637695312,822.4901733398438,845.5198974609375,786.3005981445312
/muse/eeg,868.5496215820312,835.6500244140625,837.2949829101562,825.7801513671875
/muse/eeg,825.7801513671875,830.715087890625,832.3600463867188,797.8154907226562
/muse/eeg,861.9697265625,829.070068359375,845.5198974609375,807.6853637695312
/muse/eeg,840.5849609375,838.9400024414062,830.715087890625,807.6853637695312
/muse/eeg,840.5849609375,832.3600463867188,837.2949829101562,817.5552368164062
/muse/eeg,838.9400024414062,832.3600463867188,840.5849609375,799.46044921875
/muse/eeg,842.2299194335938,837.2949829101562,834.0050048828125,801.1054077148438
/muse/eeg,825.7801513671875,834.0050048828125,834.0050048828125,801.1054077148438
/muse/eeg,835.6500244140625,829.070068359375,840.5849609375,784.6556396484375
/muse/eeg,835.6500244140625,829.070068359375,838.9400024414062,794.5255126953125
/muse/eeg,827.4251098632812,835.6500244140625,837.2949829101562,789.590576171875
/muse/eeg,852.0997924804688,830.715087890625,843.8749389648438,822.4901733398438
/muse/eeg,829.070068359375,842.2299194335938,832.3600463867188,807.6853637695312
/muse/eeg,806.0403442382812,838.9400024414062,829.070068359375,817.5552368164062
/muse/eeg,825.7801513671875,820.84521484375,848.8098754882812,791.2355346679688
/muse/eeg,857.0347290039062,842.2299194335938,834.0050048828125,820.84521484375
/muse/eeg,838.9400024414062,827.4251098632812,847.1648559570312,796.1704711914062
/muse/eeg,871.839599609375,842.2299194335938,838.9400024414062,794.5255126953125
/muse/eeg,852.0997924804688,838.9400024414062,834.0050048828125,804.3953857421875
/muse/eeg,857.0347290039062,837.2949829101562,838.9400024414062,786.3005981445312
/muse/eeg,868.5496215820312,834.0050048828125,837.2949829101562,792.8805541992188
/muse/eeg,870.194580078125,838.9400024414062,835.6500244140625,783.0106201171875
/muse/eeg,866.9046630859375,842.2299194335938,829.070068359375,815.9102783203125
/muse/eeg,837.2949829101562,830.715087890625,832.3600463867188,791.2355346679688
/muse/eeg,840.5849609375,830.715087890625,837.2949829101562,794.5255126953125
/muse/eeg,825.7801513671875,827.4251098632812,837.2949829101562,794.5255126953125
/muse/eeg,857.0347290039062,824.1351318359375,850.454833984375,804.3953857421875
/muse/eeg,827.4251098632812,840.5849609375,827.4251098632812,809.330322265625
/muse/eeg,792.8805541992188,829.070068359375,838.9400024414062,797.8154907226562
/muse/eeg,829.070068359375,827.4251098632812,842.2299194335938,817.5552368164062
/muse/eeg,807.6853637695312,827.4251098632812,838.9400024414062,806.0403442382812
/muse/eeg,799.46044921875,832.3600463867188,830.715087890625,819.2001953125
/muse/eeg,792.8805541992188,820.84521484375,838.9400024414062,794.5255126953125
/muse/eeg,850.454833984375,820.84521484375,855.3897705078125,814.2652587890625
/muse/eeg,834.0050048828125,835.6500244140625,842.2299194335938,806.0403442382812
/muse/eeg,806.0403442382812,843.8749389648438,829.070068359375,829.070068359375
/muse/eeg,756.6909790039062,832.3600463867188,827.4251098632812,812.6203002929688
/muse/eeg,787.945556640625,824.1351318359375,842.2299194335938,815.9102783203125
/muse/eeg,815.9102783203125,827.4251098632812,845.5198974609375,797.8154907226562
/muse/eeg,840.5849609375,825.7801513671875,852.0997924804688,784.6556396484375
/muse/eeg,857.0347290039062,843.8749389648438,840.5849609375,824.1351318359375
/muse/eeg,809.330322265625,838.9400024414062,838.9400024414062,809.330322265625
/muse/eeg,842.2299194335938,825.7801513671875,855.3897705078125,809.330322265625
/muse/eeg,837.2949829101562,838.9400024414062,843.8749389648438,804.3953857421875
/muse/eeg,837.2949829101562,832.3600463867188,840.5849609375,819.2001953125
/muse/eeg,822.4901733398438,835.6500244140625,837.2949829101562,806.0403442382812
/muse/eeg,806.0403442382812,834.0050048828125,840.5849609375,819.2001953125
/muse/eeg,830.715087890625,824.1351318359375,857.0347290039062,804.3953857421875
/muse/eeg,857.0347290039062,834.0050048828125,850.454833984375,812.6203002929688
/muse/eeg,842.2299194335938,835.6500244140625,845.5198974609375,815.9102783203125
/muse/eeg,815.9102783203125,840.5849609375,835.6500244140625,820.84521484375
/muse/eeg,810.9752807617188,834.0050048828125,838.9400024414062,843.8749389648438
/muse/eeg,809.330322265625,835.6500244140625,840.5849609375,835.6500244140625
/muse/eeg,830.715087890625,827.4251098632812,850.454833984375,837.2949829101562
/muse/eeg,840.5849609375,840.5849609375,842.2299194335938,838.9400024414062
/muse/eeg,837.2949829101562,842.2299194335938,837.2949829101562,873.4845581054688
/muse/eeg,809.330322265625,837.2949829101562,840.5849609375,852.0997924804688
/muse/eeg,825.7801513671875,829.070068359375,847.1648559570312,852.0997924804688
/muse/eeg,829.070068359375,834.0050048828125,838.9400024414062,853.7448120117188
/muse/eeg,819.2001953125,829.070068359375,838.9400024414062,858.6797485351562
/muse/eeg,817.5552368164062,835.6500244140625,832.3600463867188,865.2596435546875
/muse/eeg,786.3005981445312,834.0050048828125,830.715087890625,852.0997924804688
/muse/eeg,827.4251098632812,827.4251098632812,845.5198974609375,863.6146850585938
/muse/eeg,825.7801513671875,834.0050048828125,842.2299194335938,853.7448120117188
/muse/eeg,853.7448120117188,827.4251098632812,855.3897705078125,857.0347290039062
/muse/eeg,855.3897705078125,838.9400024414062,843.8749389648438,843.8749389648438
/muse/eeg,852.0997924804688,837.2949829101562,838.9400024414062,865.2596435546875
/muse/eeg,840.5849609375,837.2949829101562,838.9400024414062,838.9400024414062
/muse/eeg,858.6797485351562,830.715087890625,845.5198974609375,837.2949829101562
/muse/eeg,873.4845581054688,832.3600463867188,842.2299194335938,835.6500244140625
/muse/eeg,893.2243041992188,829.070068359375,850.454833984375,832.3600463867188
/muse/eeg,883.3544311523438,838.9400024414062,830.715087890625,837.2949829101562
/muse/eeg,845.5198974609375,827.4251098632812,837.2949829101562,812.6203002929688
/muse/eeg,875.1295166015625,829.070068359375,840.5849609375,837.2949829101562
/muse/eeg,842.2299194335938,827.4251098632812,835.6500244140625,815.9102783203125
/muse/eeg,881.70947265625,822.4901733398438,852.0997924804688,814.2652587890625
/muse/eeg,871.839599609375,834.0050048828125,835.6500244140625,812.6203002929688
/muse/eeg,873.4845581054688,825.7801513671875,838.9400024414062,822.4901733398438
/muse/eeg,860.32470703125,832.3600463867188,829.070068359375,810.9752807617188
/muse/eeg,837.2949829101562,829.070068359375,829.070068359375,807.6853637695312
/muse/eeg,848.8098754882812,822.4901733398438,840.5849609375,802.7504272460938
/muse/eeg,866.9046630859375,827.4251098632812,835.6500244140625,809.330322265625
/muse/eeg,857.0347290039062,822.4901733398438,838.9400024414062,796.1704711914062
/muse/eeg,866.9046630859375,829.070068359375,837.2949829101562,792.8805541992188
/muse/eeg,852.0997924804688,834.0050048828125,830.715087890625,819.2001953125
/muse/eeg,840.5849609375,830.715087890625,837.2949829101562,797.8154907226562
/muse/eeg,845.5198974609375,824.1351318359375,837.2949829101562,799.46044921875
/muse/eeg,850.454833984375,829.070068359375,834.0050048828125,784.6556396484375
/muse/eeg,855.3897705078125,830.715087890625,829.070068359375,810.9752807617188
/muse/eeg,837.2949829101562,827.4251098632812,834.0050048828125,791.2355346679688
/muse/eeg,847.1648559570312,829.070068359375,838.9400024414062,797.8154907226562
/muse/eeg,848.8098754882812,829.070068359375,832.3600463867188,809.330322265625
/muse/eeg,843.8749389648438,825.7801513671875,838.9400024414062,797.8154907226562
/muse/eeg,825.7801513671875,830.715087890625,825.7801513671875,809.330322265625
/muse/eeg,789.590576171875,822.4901733398438,832.3600463867188,789.590576171875
/muse/eeg,850.454833984375,812.6203002929688,850.454833984375,812.6203002929688
/muse/eeg,853.7448120117188,824.1351318359375,843.8749389648438,799.46044921875
/muse/eeg,837.2949829101562,829.070068359375,838.9400024414062,807.6853637695312
/muse/eeg,806.0403442382812,829.070068359375,830.715087890625,799.46044921875
/muse/eeg,801.1054077148438,820.84521484375,837.2949829101562,812.6203002929688
/muse/eeg,804.3953857421875,820.84521484375,838.9400024414062,802.7504272460938
/muse/eeg,834.0050048828125,820.84521484375,848.8098754882812,804.3953857421875
/muse/eeg,840.5849609375,830.715087890625,840.5849609375,819.2001953125
/muse/eeg,819.2001953125,830.715087890625,837.2949829101562,814.2652587890625
/muse/eeg,812.6203002929688,825.7801513671875,838.9400024414062,807.6853637695312
/muse/eeg,820.84521484375,824.1351318359375,843.8749389648438,783.0106201171875
/muse/eeg,825.7801513671875,827.4251098632812,837.2949829101562,814.2652587890625
/muse/eeg,824.1351318359375,827.4251098632812,840.5849609375,787.945556640625
/muse/eeg,810.9752807617188,834.0050048828125,829.070068359375,807.6853637695312
/muse/eeg,784.6556396484375,827.4251098632812,830.715087890625,791.2355346679688
/muse/eeg,824.1351318359375,819.2001953125,840.5849609375,804.3953857421875
/muse/eeg,830.715087890625,827.4251098632812,837.2949829101562,792.8805541992188
/muse/eeg,834.0050048828125,822.4901733398438,847.1648559570312,786.3005981445312
/muse/eeg,838.9400024414062,830.715087890625,838.9400024414062,801.1054077148438
/muse/eeg,830.715087890625,822.4901733398438,845.5198974609375,786.3005981445312
/muse/eeg,842.2299194335938,834.0050048828125,832.3600463867188,806.0403442382812
/muse/eeg,783.0106201171875,835.6500244140625,817.5552368164062,797.8154907226562
/muse/eeg,789.590576171875,819.2001953125,837.2949829101562,806.0403442382812
/muse/eeg,802.7504272460938,825.7801513671875,835.6500244140625,789.590576171875
/muse/eeg,812.6203002929688,815.9102783203125,843.8749389648438,799.46044921875
/muse/eeg,838.9400024414062,822.4901733398438,843.8749389648438,792.8805541992188
/muse/eeg,838.9400024414062,832.3600463867188,829.070068359375,824.1351318359375
/muse/eeg,802.7504272460938,822.4901733398438,837.2949829101562,806.0403442382812
/muse/eeg,822.4901733398438,819.2001953125,845.5198974609375,797.8154907226562
/muse/eeg,832.3600463867188,827.4251098632812,838.9400024414062,812.6203002929688
/muse/eeg,827.4251098632812,824.1351318359375,838.9400024414062,804.3953857421875
/muse/eeg,810.9752807617188,830.715087890625,829.070068359375,819.2001953125
/muse/eeg,784.6556396484375,824.1351318359375,830.715087890625,797.8154907226562
/muse/eeg,822.4901733398438,819.2001953125,842.2299194335938,815.9102783203125
/muse/eeg,814.2652587890625,829.070068359375,830.715087890625,797.8154907226562
/muse/eeg,824.1351318359375,822.4901733398438,843.8749389648438,794.5255126953125
/muse/eeg,843.8749389648438,829.070068359375,838.9400024414062,794.5255126953125
/muse/eeg,830.715087890625,829.070068359375,829.070068359375,814.2652587890625
/muse/eeg,814.2652587890625,825.7801513671875,840.5849609375,797.8154907226562
/muse/eeg,830.715087890625,827.4251098632812,842.2299194335938,791.2355346679688
/muse/eeg,835.6500244140625,825.7801513671875,838.9400024414062,809.330322265625
/muse/eeg,855.3897705078125,824.1351318359375,847.1648559570312,792.8805541992188
/muse/eeg,832.3600463867188,835.6500244140625,825.7801513671875,804.3953857421875
/muse/eeg,791.2355346679688,822.4901733398438,834.0050048828125,787.945556640625
/muse/eeg,845.5198974609375,829.070068359375,837.2949829101562,812.6203002929688
/muse/eeg,810.9752807617188,827.4251098632812,827.4251098632812,789.590576171875
/muse/eeg,819.2001953125,829.070068359375,825.7801513671875,806.0403442382812
/muse/eeg,799.46044921875,824.1351318359375,829.070068359375,786.3005981445312
/muse/eeg,852.0997924804688,820.84521484375,843.8749389648438,791.2355346679688
/muse/eeg,853.7448120117188,832.3600463867188,832.3600463867188,796.1704711914062
/muse/eeg,835.6500244140625,827.4251098632812,835.6500244140625,786.3005981445312
/muse/eeg,834.0050048828125,832.3600463867188,825.7801513671875,807.6853637695312
/muse/eeg,796.1704711914062,829.070068359375,822.4901733398438,796.1704711914062
/muse/eeg,809.330322265625,819.2001953125,834.0050048828125,791.2355346679688
/muse/eeg,834.0050048828125,820.84521484375,835.6500244140625,769.850830078125
/muse/eeg,835.6500244140625,830.715087890625,827.4251098632812,806.0403442382812
/muse/eeg,806.0403442382812,829.070068359375,827.4251098632812,781.3656616210938
/muse/eeg,827.4251098632812,829.070068359375,834.0050048828125,789.590576171875
/muse/eeg,843.8749389648438,834.0050048828125,832.3600463867188,783.0106201171875
/muse/eeg,843.8749389648438,835.6500244140625,829.070068359375,802.7504272460938
/muse/eeg,822.4901733398438,829.070068359375,834.0050048828125,783.0106201171875
/muse/eeg,840.5849609375,834.0050048828125,835.6500244140625,781.3656616210938
/muse/eeg,838.9400024414062,832.3600463867188,827.4251098632812,797.8154907226562
/muse/eeg,835.6500244140625,825.7801513671875,837.2949829101562,784.6556396484375
/muse/eeg,834.0050048828125,837.2949829101562,822.4901733398438,804.3953857421875
/muse/eeg,781.3656616210938,824.1351318359375,829.070068359375,781.3656616210938
/muse/eeg,840.5849609375,810.9752807617188,853.7448120117188,794.5255126953125
/muse/eeg,853.7448120117188,827.4251098632812,837.2949829101562,781.3656616210938
/muse/eeg,835.6500244140625,820.84521484375,837.2949829101562,792.8805541992188
/muse/eeg,824.1351318359375,829.070068359375,829.070068359375,796.1704711914062
/muse/eeg,812.6203002929688,830.715087890625,827.4251098632812,815.9102783203125
/muse/eeg,804.3953857421875,820.84521484375,838.9400024414062,794.5255126953125
/muse/eeg,829.070068359375,822.4901733398438,845.5198974609375,779.720703125
/muse/eeg,838.9400024414062,829.070068359375,834.0050048828125,806.0403442382812
/muse/eeg,812.6203002929688,825.7801513671875,834.0050048828125,792.8805541992188
/muse/eeg,824.1351318359375,820.84521484375,840.5849609375,799.46044921875
/muse/eeg,832.3600463867188,825.7801513671875,835.6500244140625,783.0106201171875
/muse/eeg,832.3600463867188,824.1351318359375,832.3600463867188,809.330322265625
/muse/eeg,822.4901733398438,825.7801513671875,835.6500244140625,787.945556640625
/muse/eeg,801.1054077148438,838.9400024414062,819.2001953125,806.0403442382812
/muse/eeg,769.850830078125,820.84521484375,834.0050048828125,789.590576171875
/muse/eeg,837.2949829101562,822.4901733398438,842.2299194335938,797.8154907226562
/muse/eeg,810.9752807617188,829.070068359375,829.070068359375,794.5255126953125
/muse/eeg,824.1351318359375,819.2001953125,847.1648559570312,779.720703125
/muse/eeg,840.5849609375,832.3600463867188,829.070068359375,810.9752807617188
/muse/eeg,799.46044921875,824.1351318359375,830.715087890625,789.590576171875
/muse/eeg,827.4251098632812,822.4901733398438,840.5849609375,799.46044921875
/muse/eeg,834.0050048828125,827.4251098632812,837.2949829101562,791.2355346679688
/muse/eeg,837.2949829101562,824.1351318359375,837.2949829101562,814.2652587890625
/muse/eeg,848.8098754882812,827.4251098632812,840.5849609375,791.2355346679688
/muse/eeg,819.2001953125,838.9400024414062,819.2001953125,812.6203002929688
/muse/eeg,797.8154907226562,824.1351318359375,829.070068359375,799.46044921875
/muse/eeg,838.9400024414062,837.2949829101562,825.7801513671875,819.2001953125
/muse/eeg,806.0403442382812,832.3600463867188,825.7801513671875,812.6203002929688
/muse/eeg,837.2949829101562,829.070068359375,842.2299194335938,794.5255126953125
/muse/eeg,838.9400024414062,837.2949829101562,825.7801513671875,827.4251098632812
/muse/eeg,815.9102783203125,827.4251098632812,832.3600463867188,804.3953857421875
/muse/eeg,824.1351318359375,834.0050048828125,820.84521484375,827.4251098632812
/muse/eeg,789.590576171875,824.1351318359375,824.1351318359375,802.7504272460938
/muse/eeg,829.070068359375,822.4901733398438,838.9400024414062,817.5552368164062
/muse/eeg,804.3953857421875,830.715087890625,829.070068359375,797.8154907226562
/muse/eeg,809.330322265625,820.84521484375,838.9400024414062,797.8154907226562
/muse/eeg,815.9102783203125,829.070068359375,830.715087890625,807.6853637695312
/muse/eeg,804.3953857421875,825.7801513671875,834.0050048828125,810.9752807617188
/muse/eeg,799.46044921875,827.4251098632812,830.715087890625,809.330322265625
/muse/eeg,783.0106201171875,825.7801513671875,830.715087890625,789.590576171875
/muse/eeg,783.0106201171875,827.4251098632812,829.070068359375,812.6203002929688
/muse/eeg,786.3005981445312,822.4901733398438,837.2949829101562,783.0106201171875
/muse/eeg,819.2001953125,824.1351318359375,840.5849609375,789.590576171875
/muse/eeg,820.84521484375,830.715087890625,837.2949829101562,784.6556396484375
/muse/eeg,830.715087890625,832.3600463867188,834.0050048828125,812.6203002929688
/muse/eeg,810.9752807617188,827.4251098632812,834.0050048828125,792.8805541992188
/muse/eeg,789.590576171875,832.3600463867188,819.2001953125,799.46044921875
/muse/eeg,778.07568359375,820.84521484375,830.715087890625,791.2355346679688
/muse/eeg,830.715087890625,817.5552368164062,845.5198974609375,791.2355346679688
/muse/eeg,843.8749389648438,829.070068359375,837.2949829101562,797.8154907226562
/muse/eeg,830.715087890625,829.070068359375,835.6500244140625,789.590576171875
/muse/eeg,832.3600463867188,834.0050048828125,827.4251098632812,812.6203002929688
/muse/eeg,786.3005981445312,829.070068359375,820.84521484375,796.1704711914062
/muse/eeg,799.46044921875,817.5552368164062,837.2949829101562,792.8805541992188
/muse/eeg,824.1351318359375,825.7801513671875,837.2949829101562,784.6556396484375
/muse/eeg,825.7801513671875,827.4251098632812,829.070068359375,809.330322265625
/muse/eeg,806.0403442382812,825.7801513671875,827.4251098632812,794.5255126953125
/muse/eeg,792.8805541992188,827.4251098632812,820.84521484375,807.6853637695312
/muse/eeg,783.0106201171875,815.9102783203125,827.4251098632812,802.7504272460938
/muse/eeg,837.2949829101562,814.2652587890625,843.8749389648438,796.1704711914062
/muse/eeg,817.5552368164062,830.715087890625,825.7801513671875,807.6853637695312
/muse/eeg,787.945556640625,819.2001953125,832.3600463867188,789.590576171875
/muse/eeg,820.84521484375,815.9102783203125,838.9400024414062,806.0403442382812
/muse/eeg,797.8154907226562,822.4901733398438,827.4251098632812,794.5255126953125
/muse/eeg,809.330322265625,809.330322265625,837.2949829101562,791.2355346679688
/muse/eeg,830.715087890625,820.84521484375,838.9400024414062,774.7857666015625
/muse/eeg,819.2001953125,824.1351318359375,827.4251098632812,799.46044921875
/muse/eeg,829.070068359375,819.2001953125,838.9400024414062,778.07568359375
/muse/eeg,817.5552368164062,827.4251098632812,825.7801513671875,792.8805541992188
/muse/eeg,812.6203002929688,819.2001953125,834.0050048828125,797.8154907226562
/muse/eeg,806.0403442382812,829.070068359375,824.1351318359375,806.0403442382812
/muse/eeg,796.1704711914062,815.9102783203125,838.9400024414062,794.5255126953125
/muse/eeg,819.2001953125,820.84521484375,840.5849609375,776.4307250976562
/muse/eeg,817.5552368164062,825.7801513671875,829.070068359375,812.6203002929688
/muse/eeg,792.8805541992188,825.7801513671875,830.715087890625,791.2355346679688
/muse/eeg,792.8805541992188,820.84521484375,834.0050048828125,796.1704711914062
/muse/eeg,806.0403442382812,822.4901733398438,837.2949829101562,784.6556396484375
/muse/eeg,806.0403442382812,825.7801513671875,829.070068359375,809.330322265625
/muse/eeg,801.1054077148438,824.1351318359375,834.0050048828125,792.8805541992188
/muse/eeg,786.3005981445312,832.3600463867188,819.2001953125,806.0403442382812
/muse/eeg,781.3656616210938,824.1351318359375,827.4251098632812,810.9752807617188
/muse/eeg,781.3656616210938,819.2001953125,835.6500244140625,797.8154907226562
/muse/eeg,794.5255126953125,822.4901733398438,832.3600463867188,806.0403442382812
/muse/eeg,786.3005981445312,820.84521484375,835.6500244140625,786.3005981445312
/muse/eeg,832.3600463867188,822.4901733398438,840.5849609375,809.330322265625
/muse/eeg,799.46044921875,829.070068359375,824.1351318359375,801.1054077148438
/muse/eeg,791.2355346679688,815.9102783203125,835.6500244140625,791.2355346679688
/muse/eeg,814.2652587890625,822.4901733398438,835.6500244140625,783.0106201171875
/muse/eeg,830.715087890625,819.2001953125,837.2949829101562,797.8154907226562
/muse/eeg,850.454833984375,820.84521484375,838.9400024414062,774.7857666015625
/muse/eeg,843.8749389648438,830.715087890625,820.84521484375,789.590576171875
/muse/eeg,829.070068359375,819.2001953125,830.715087890625,791.2355346679688
/muse/eeg,843.8749389648438,827.4251098632812,825.7801513671875,791.2355346679688
/muse/eeg,834.0050048828125,825.7801513671875,830.715087890625,797.8154907226562
/muse/eeg,817.5552368164062,830.715087890625,822.4901733398438,791.2355346679688
/muse/eeg,815.9102783203125,822.4901733398438,832.3600463867188,814.2652587890625
/muse/eeg,820.84521484375,827.4251098632812,832.3600463867188,794.5255126953125
/muse/eeg,819.2001953125,820.84521484375,835.6500244140625,797.8154907226562
/muse/eeg,842.2299194335938,825.7801513671875,842.2299194335938,792.8805541992188
/muse/eeg,830.715087890625,830.715087890625,829.070068359375,822.4901733398438
/muse/eeg,806.0403442382812,824.1351318359375,835.6500244140625,807.6853637695312
/muse/eeg,825.7801513671875,825.7801513671875,840.5849609375,804.3953857421875
/muse/eeg,825.7801513671875,830.715087890625,835.6500244140625,820.84521484375
/muse/eeg,807.6853637695312,830.715087890625,837.2949829101562,807.6853637695312
/muse/eeg,820.84521484375,827.4251098632812,840.5849609375,815.9102783203125
/muse/eeg,815.9102783203125,827.4251098632812,845.5198974609375,794.5255126953125
/muse/eeg,842.2299194335938,830.715087890625,840.5849609375,822.4901733398438
/muse/eeg,827.4251098632812,827.4251098632812,840.5849609375,802.7504272460938
/muse/eeg,820.84521484375,834.0050048828125,830.715087890625,815.9102783203125
/muse/eeg,789.590576171875,830.715087890625,829.070068359375,801.1054077148438
/muse/eeg,825.7801513671875,819.2001953125,850.454833984375,807.6853637695312
/muse/eeg,858.6797485351562,824.1351318359375,847.1648559570312,794.5255126953125
/muse/eeg,838.9400024414062,829.070068359375,835.6500244140625,796.1704711914062
/muse/eeg,835.6500244140625,825.7801513671875,838.9400024414062,814.2652587890625
/muse/eeg,814.2652587890625,830.715087890625,827.4251098632812,804.3953857421875
/muse/eeg,807.6853637695312,824.1351318359375,832.3600463867188,806.0403442382812
/muse/eeg,824.1351318359375,817.5552368164062,845.5198974609375,789.590576171875
/muse/eeg,848.8098754882812,825.7801513671875,837.2949829101562,815.9102783203125
/muse/eeg,814.2652587890625,824.1351318359375,829.070068359375,796.1704711914062
/muse/eeg,827.4251098632812,819.2001953125,838.9400024414062,801.1054077148438
/muse/eeg,838.9400024414062,827.4251098632812,835.6500244140625,801.1054077148438
/muse/eeg,832.3600463867188,822.4901733398438,832.3600463867188,815.9102783203125
/muse/eeg,820.84521484375,822.4901733398438,832.3600463867188,812.6203002929688
/muse/eeg,815.9102783203125,822.4901733398438,834.0050048828125,812.6203002929688
/muse/eeg,843.8749389648438,825.7801513671875,837.2949829101562,830.715087890625
/muse/eeg,825.7801513671875,825.7801513671875,834.0050048828125,822.4901733398438
/muse/eeg,832.3600463867188,829.070068359375,834.0050048828125,838.9400024414062
/muse/eeg,792.8805541992188,829.070068359375,820.84521484375,832.3600463867188
/muse/eeg,825.7801513671875,814.2652587890625,842.2299194335938,848.8098754882812
/muse/eeg,845.5198974609375,834.0050048828125,832.3600463867188,843.8749389648438
/muse/eeg,830.715087890625,824.1351318359375,834.0050048828125,847.1648559570312
/muse/eeg,835.6500244140625,825.7801513671875,837.2949829101562,842.2299194335938
/muse/eeg,838.9400024414062,834.0050048828125,829.070068359375,865.2596435546875
/muse/eeg,815.9102783203125,824.1351318359375,832.3600463867188,850.454833984375
/muse/eeg,830.715087890625,824.1351318359375,837.2949829101562,843.8749389648438
/muse/eeg,857.0347290039062,827.4251098632812,835.6500244140625,860.32470703125
/muse/eeg,830.715087890625,822.4901733398438,829.070068359375,845.5198974609375
/muse/eeg,835.6500244140625,819.2001953125,832.3600463867188,852.0997924804688
/muse/eeg,834.0050048828125,819.2001953125,834.0050048828125,834.0050048828125
/muse/eeg,860.32470703125,824.1351318359375,832.3600463867188,860.32470703125
/muse/eeg,857.0347290039062,822.4901733398438,840.5849609375,834.0050048828125
/muse/eeg,857.0347290039062,834.0050048828125,827.4251098632812,847.1648559570312
/muse/eeg,832.3600463867188,824.1351318359375,825.7801513671875,827.4251098632812
/muse/eeg,858.6797485351562,820.84521484375,838.9400024414062,824.1351318359375
/muse/eeg,857.0347290039062,827.4251098632812,827.4251098632812,822.4901733398438
/muse/eeg,852.0997924804688,817.5552368164062,840.5849609375,799.46044921875
/muse/eeg,875.1295166015625,829.070068359375,830.715087890625,825.7801513671875
/muse/eeg,852.0997924804688,825.7801513671875,829.070068359375,807.6853637695312
/muse/eeg,855.3897705078125,822.4901733398438,834.0050048828125,815.9102783203125
/muse/eeg,857.0347290039062,820.84521484375,837.2949829101562,799.46044921875
/muse/eeg,870.194580078125,824.1351318359375,832.3600463867188,827.4251098632812
/muse/eeg,850.454833984375,824.1351318359375,834.0050048828125,802.7504272460938
/muse/eeg,855.3897705078125,824.1351318359375,835.6500244140625,804.3953857421875
/muse/eeg,863.6146850585938,824.1351318359375,837.2949829101562,807.6853637695312
/muse/eeg,852.0997924804688,829.070068359375,829.070068359375,806.0403442382812
/muse/eeg,824.1351318359375,829.070068359375,824.1351318359375,804.3953857421875
/muse/eeg,794.5255126953125,822.4901733398438,827.4251098632812,784.6556396484375
/muse/eeg,829.070068359375,819.2001953125,838.9400024414062,796.1704711914062
/muse/eeg,825.7801513671875,820.84521484375,835.6500244140625,781.3656616210938
/muse/eeg,825.7801513671875,824.1351318359375,835.6500244140625,791.2355346679688
/muse/eeg,778.07568359375,832.3600463867188,820.84521484375,786.3005981445312
/muse/eeg,799.46044921875,817.5552368164062,843.8749389648438,806.0403442382812
/muse/eeg,812.6203002929688,827.4251098632812,837.2949829101562,794.5255126953125
/muse/eeg,809.330322265625,822.4901733398438,838.9400024414062,792.8805541992188
/muse/eeg,835.6500244140625,824.1351318359375,838.9400024414062,804.3953857421875
/muse/eeg,804.3953857421875,815.9102783203125,827.4251098632812,822.4901733398438
/muse/eeg,802.7504272460938,815.9102783203125,838.9400024414062,801.1054077148438
/muse/eeg,807.6853637695312,824.1351318359375,837.2949829101562,778.07568359375
/muse/eeg,827.4251098632812,827.4251098632812,827.4251098632812,817.5552368164062
/muse/eeg,807.6853637695312,824.1351318359375,825.7801513671875,799.46044921875
/muse/eeg,827.4251098632812,819.2001953125,824.1351318359375,812.6203002929688
/muse/eeg,820.84521484375,822.4901733398438,817.5552368164062,794.5255126953125
/muse/eeg,827.4251098632812,820.84521484375,817.5552368164062,814.2652587890625
/muse/eeg,838.9400024414062,822.4901733398438,820.84521484375,791.2355346679688
/muse/eeg,824.1351318359375,822.4901733398438,802.7504272460938,810.9752807617188
/muse/eeg,817.5552368164062,812.6203002929688,807.6853637695312,806.0403442382812
/muse/eeg,858.6797485351562,809.330322265625,822.4901733398438,802.7504272460938
/muse/eeg,886.6444091796875,815.9102783203125,815.9102783203125,819.2001953125
/muse/eeg,884.9994506835938,822.4901733398438,810.9752807617188,822.4901733398438
/muse/eeg,878.4194946289062,822.4901733398438,797.8154907226562,852.0997924804688
/muse/eeg,870.194580078125,815.9102783203125,802.7504272460938,820.84521484375
/muse/eeg,894.8693237304688,819.2001953125,801.1054077148438,843.8749389648438
/muse/eeg,894.8693237304688,809.330322265625,810.9752807617188,820.84521484375
/muse/eeg,927.7689208984375,815.9102783203125,807.6853637695312,842.2299194335938
/muse/eeg,899.8042602539062,819.2001953125,801.1054077148438,842.2299194335938
/muse/eeg,908.0291748046875,814.2652587890625,810.9752807617188,837.2949829101562
/muse/eeg,922.833984375,820.84521484375,809.330322265625,838.9400024414062
/muse/eeg,901.44921875,822.4901733398438,804.3953857421875,837.2949829101562
/muse/eeg,899.8042602539062,819.2001953125,810.9752807617188,834.0050048828125
/muse/eeg,881.70947265625,827.4251098632812,799.46044921875,845.5198974609375
/muse/eeg,889.9343872070312,817.5552368164062,817.5552368164062,857.0347290039062
/muse/eeg,906.3841552734375,824.1351318359375,814.2652587890625,827.4251098632812
/muse/eeg,889.9343872070312,825.7801513671875,810.9752807617188,838.9400024414062
/muse/eeg,896.5142822265625,820.84521484375,825.7801513671875,822.4901733398438
/muse/eeg,899.8042602539062,825.7801513671875,814.2652587890625,842.2299194335938
/muse/eeg,878.4194946289062,820.84521484375,819.2001953125,815.9102783203125
/muse/eeg,884.9994506835938,819.2001953125,822.4901733398438,810.9752807617188
/muse/eeg,904.7391967773438,825.7801513671875,822.4901733398438,817.5552368164062
/muse/eeg,891.579345703125,822.4901733398438,824.1351318359375,809.330322265625
/muse/eeg,903.09423828125,819.2001953125,835.6500244140625,799.46044921875
/muse/eeg,881.70947265625,832.3600463867188,815.9102783203125,801.1054077148438
/muse/eeg,865.2596435546875,820.84521484375,827.4251098632812,804.3953857421875
/muse/eeg,875.1295166015625,827.4251098632812,824.1351318359375,774.7857666015625
/muse/eeg,855.3897705078125,824.1351318359375,820.84521484375,792.8805541992188
/muse/eeg,880.064453125,820.84521484375,835.6500244140625,786.3005981445312
/muse/eeg,898.1592407226562,830.715087890625,824.1351318359375,809.330322265625
/muse/eeg,881.70947265625,825.7801513671875,830.715087890625,791.2355346679688
/muse/eeg,881.70947265625,832.3600463867188,824.1351318359375,815.9102783203125
/muse/eeg,852.0997924804688,829.070068359375,820.84521484375,842.2299194335938
/muse/eeg,838.9400024414062,819.2001953125,825.7801513671875,853.7448120117188
/muse/eeg,850.454833984375,817.5552368164062,830.715087890625,865.2596435546875
/muse/eeg,842.2299194335938,825.7801513671875,830.715087890625,852.0997924804688
/muse/eeg,884.9994506835938,827.4251098632812,834.0050048828125,871.839599609375
/muse/eeg,904.7391967773438,832.3600463867188,834.0050048828125,850.454833984375
/muse/eeg,909.6741333007812,827.4251098632812,829.070068359375,870.194580078125
/muse/eeg,932.703857421875,824.1351318359375,838.9400024414062,845.5198974609375
/muse/eeg,934.3488159179688,834.0050048828125,825.7801513671875,853.7448120117188
/muse/eeg,901.44921875,829.070068359375,830.715087890625,820.84521484375
/muse/eeg,898.1592407226562,824.1351318359375,837.2949829101562,810.9752807617188
/muse/eeg,917.8990478515625,824.1351318359375,837.2949829101562,825.7801513671875
/muse/eeg,899.8042602539062,829.070068359375,832.3600463867188,820.84521484375
/muse/eeg,912.964111328125,827.4251098632812,834.0050048828125,820.84521484375
/muse/eeg,876.7745361328125,834.0050048828125,822.4901733398438,829.070068359375
/muse/eeg,891.579345703125,817.5552368164062,838.9400024414062,842.2299194335938
/muse/eeg,914.6090698242188,827.4251098632812,845.5198974609375,814.2652587890625
/muse/eeg,909.6741333007812,829.070068359375,840.5849609375,829.070068359375
/muse/eeg,904.7391967773438,830.715087890625,835.6500244140625,835.6500244140625
/muse/eeg,880.064453125,830.715087890625,830.715087890625,847.1648559570312
/muse/eeg,866.9046630859375,819.2001953125,837.2949829101562,817.5552368164062
/muse/eeg,873.4845581054688,820.84521484375,837.2949829101562,814.2652587890625
/muse/eeg,891.579345703125,819.2001953125,850.454833984375,820.84521484375
/muse/eeg,878.4194946289062,825.7801513671875,838.9400024414062,827.4251098632812
/muse/eeg,858.6797485351562,824.1351318359375,842.2299194335938,829.070068359375
/muse/eeg,857.0347290039062,820.84521484375,850.454833984375,807.6853637695312
/muse/eeg,886.6444091796875,825.7801513671875,845.5198974609375,830.715087890625
/muse/eeg,858.6797485351562,824.1351318359375,843.8749389648438,809.330322265625
/muse/eeg,858.6797485351562,827.4251098632812,838.9400024414062,822.4901733398438
/muse/eeg,810.9752807617188,827.4251098632812,827.4251098632812,812.6203002929688
/muse/eeg,810.9752807617188,817.5552368164062,840.5849609375,810.9752807617188
/muse/eeg,827.4251098632812,822.4901733398438,843.8749389648438,799.46044921875
/muse/eeg,819.2001953125,825.7801513671875,838.9400024414062,801.1054077148438
/muse/eeg,847.1648559570312,820.84521484375,850.454833984375,804.3953857421875
/muse/eeg,835.6500244140625,824.1351318359375,840.5849609375,794.5255126953125
/muse/eeg,855.3897705078125,824.1351318359375,848.8098754882812,797.8154907226562
/muse/eeg,820.84521484375,832.3600463867188,832.3600463867188,791.2355346679688
/muse/eeg,796.1704711914062,827.4251098632812,825.7801513671875,814.2652587890625
/muse/eeg,773.1407470703125,822.4901733398438,829.070068359375,792.8805541992188
/muse/eeg,784.6556396484375,814.2652587890625,843.8749389648438,789.590576171875
/muse/eeg,817.5552368164062,820.84521484375,847.1648559570312,787.945556640625
/muse/eeg,827.4251098632812,827.4251098632812,842.2299194335938,815.9102783203125
/muse/eeg,799.46044921875,827.4251098632812,835.6500244140625,809.330322265625
/muse/eeg,774.7857666015625,820.84521484375,837.2949829101562,814.2652587890625
/muse/eeg,810.9752807617188,819.2001953125,848.8098754882812,815.9102783203125
/muse/eeg,804.3953857421875,825.7801513671875,837.2949829101562,810.9752807617188
/muse/eeg,792.8805541992188,820.84521484375,842.2299194335938,819.2001953125
/muse/eeg,758.3359375,827.4251098632812,827.4251098632812,802.7504272460938
/muse/eeg,753.4010009765625,817.5552368164062,837.2949829101562,814.2652587890625
/muse/eeg,771.4957885742188,815.9102783203125,843.8749389648438,797.8154907226562
/muse/eeg,750.1110229492188,824.1351318359375,830.715087890625,807.6853637695312
/muse/eeg,745.1760864257812,814.2652587890625,850.454833984375,794.5255126953125
/muse/eeg,773.1407470703125,827.4251098632812,835.6500244140625,822.4901733398438
/muse/eeg,728.726318359375,819.2001953125,835.6500244140625,812.6203002929688
/muse/eeg,735.3062133789062,815.9102783203125,840.5849609375,801.1054077148438
/muse/eeg,751.7560424804688,814.2652587890625,842.2299194335938,814.2652587890625
/muse/eeg,751.7560424804688,817.5552368164062,840.5849609375,812.6203002929688
/muse/eeg,768.205810546875,817.5552368164062,848.8098754882812,824.1351318359375
/muse/eeg,741.8861083984375,825.7801513671875,834.0050048828125,822.4901733398438
/muse/eeg,741.8861083984375,817.5552368164062,835.6500244140625,843.8749389648438
/muse/eeg,746.8211059570312,815.9102783203125,843.8749389648438,829.070068359375
/muse/eeg,751.7560424804688,827.4251098632812,832.3600463867188,843.8749389648438
/muse/eeg,736.951171875,822.4901733398438,838.9400024414062,835.6500244140625
/muse/eeg,768.205810546875,819.2001953125,845.5198974609375,843.8749389648438
/muse/eeg,774.7857666015625,825.7801513671875,837.2949829101562,845.5198974609375
/muse/eeg,758.3359375,814.2652587890625,843.8749389648438,814.2652587890625
/muse/eeg,804.3953857421875,819.2001953125,845.5198974609375,834.0050048828125
/muse/eeg,783.0106201171875,824.1351318359375,832.3600463867188,838.9400024414062
/muse/eeg,792.8805541992188,819.2001953125,835.6500244140625,848.8098754882812
/muse/eeg,766.5608520507812,820.84521484375,827.4251098632812,829.070068359375
/muse/eeg,797.8154907226562,815.9102783203125,835.6500244140625,860.32470703125
/muse/eeg,810.9752807617188,810.9752807617188,842.2299194335938,840.5849609375
/muse/eeg,838.9400024414062,814.2652587890625,847.1648559570312,842.2299194335938
/muse/eeg,845.5198974609375,812.6203002929688,845.5198974609375,834.0050048828125
/muse/eeg,875.1295166015625,817.5552368164062,840.5849609375,855.3897705078125
/muse/eeg,857.0347290039062,817.5552368164062,830.715087890625,860.32470703125
/muse/eeg,860.32470703125,812.6203002929688,842.2299194335938,834.0050048828125
/muse/eeg,893.2243041992188,820.84521484375,838.9400024414062,850.454833984375
/muse/eeg,871.839599609375,817.5552368164062,837.2949829101562,842.2299194335938
/muse/eeg,888.2893676757812,819.2001953125,838.9400024414062,842.2299194335938
/muse/eeg,861.9697265625,824.1351318359375,824.1351318359375,827.4251098632812
/muse/eeg,884.9994506835938,812.6203002929688,838.9400024414062,853.7448120117188
/muse/eeg,909.6741333007812,815.9102783203125,848.8098754882812,834.0050048828125
/muse/eeg,919.5440063476562,824.1351318359375,838.9400024414062,832.3600463867188
/muse/eeg,896.5142822265625,825.7801513671875,837.2949829101562,820.84521484375
/muse/eeg,886.6444091796875,830.715087890625,829.070068359375,837.2949829101562
/muse/eeg,889.9343872070312,832.3600463867188,827.4251098632812,843.8749389648438
/muse/eeg,899.8042602539062,822.4901733398438,837.2949829101562,825.7801513671875
/muse/eeg,924.4789428710938,810.9752807617188,848.8098754882812,834.0050048828125
/muse/eeg,916.2540283203125,824.1351318359375,842.2299194335938,830.715087890625
/muse/eeg,832.3600463867188,830.715087890625,855.3897705078125,817.5552368164062
/muse/eeg,850.454833984375,832.3600463867188,853.7448120117188,824.1351318359375
/muse/eeg,843.8749389648438,834.0050048828125,853.7448120117188,815.9102783203125
/muse/eeg,842.2299194335938,837.2949829101562,860.32470703125,817.5552368164062
/muse/eeg,840.5849609375,827.4251098632812,855.3897705078125,830.715087890625
/muse/eeg,840.5849609375,825.7801513671875,858.6797485351562,820.84521484375
/muse/eeg,835.6500244140625,827.4251098632812,855.3897705078125,825.7801513671875
/muse/eeg,814.2652587890625,820.84521484375,847.1648559570312,807.6853637695312
/muse/eeg,837.2949829101562,824.1351318359375,857.0347290039062,825.7801513671875
/muse/eeg,842.2299194335938,830.715087890625,861.9697265625,817.5552368164062
/muse/eeg,847.1648559570312,829.070068359375,858.6797485351562,824.1351318359375
/muse/eeg,843.8749389648438,830.715087890625,857.0347290039062,820.84521484375
/muse/eeg,837.2949829101562,827.4251098632812,855.3897705078125,829.070068359375
/muse/eeg,830.715087890625,824.1351318359375,852.0997924804688,819.2001953125
/muse/eeg,832.3600463867188,827.4251098632812,853.7448120117188,809.330322265625
/muse/eeg,838.9400024414062,830.715087890625,855.3897705078125,825.7801513671875
/muse/eeg,834.0050048828125,829.070068359375,852.0997924804688,819.2001953125
/muse/eeg,832.3600463867188,830.715087890625,852.0997924804688,820.84521484375
/muse/eeg,837.2949829101562,830.715087890625,853.7448120117188,809.330322265625
/muse/eeg,837.2949829101562,830.715087890625,848.8098754882812,819.2001953125
/muse/eeg,829.070068359375,829.070068359375,852.0997924804688,806.0403442382812
/muse/eeg,825.7801513671875,827.4251098632812,848.8098754882812,815.9102783203125
/muse/eeg,822.4901733398438,827.4251098632812,845.5198974609375,817.5552368164062
/muse/eeg,845.5198974609375,830.715087890625,852.0997924804688,820.84521484375
/muse/eeg,840.5849609375,829.070068359375,848.8098754882812,820.84521484375
/muse/eeg,837.2949829101562,825.7801513671875,852.0997924804688,806.0403442382812
/muse/eeg,847.1648559570312,829.070068359375,850.454833984375,827.4251098632812
/muse/eeg,834.0050048828125,825.7801513671875,850.454833984375,810.9752807617188
/muse/eeg,838.9400024414062,827.4251098632812,853.7448120117188,820.84521484375
/muse/eeg,838.9400024414062,827.4251098632812,853.7448120117188,807.6853637695312
/muse/eeg,850.454833984375,827.4251098632812,850.454833984375,824.1351318359375
/muse/eeg,827.4251098632812,824.1351318359375,850.454833984375,807.6853637695312
/muse/eeg,840.5849609375,829.070068359375,852.0997924804688,806.0403442382812
/muse/eeg,842.2299194335938,832.3600463867188,855.3897705078125,814.2652587890625
/muse/eeg,837.2949829101562,830.715087890625,855.3897705078125,815.9102783203125
/muse/eeg,843.8749389648438,832.3600463867188,852.0997924804688,812.6203002929688
/muse/eeg,827.4251098632812,829.070068359375,850.454833984375,809.330322265625
/muse/eeg,825.7801513671875,829.070068359375,850.454833984375,820.84521484375
/muse/eeg,829.070068359375,829.070068359375,853.7448120117188,806.0403442382812
/muse/eeg,832.3600463867188,830.715087890625,855.3897705078125,820.84521484375
/muse/eeg,824.1351318359375,827.4251098632812,855.3897705078125,806.0403442382812
/muse/eeg,847.1648559570312,830.715087890625,858.6797485351562,822.4901733398438
/muse/eeg,825.7801513671875,829.070068359375,852.0997924804688,806.0403442382812
/muse/eeg,820.84521484375,829.070068359375,850.454833984375,812.6203002929688
/muse/eeg,814.2652587890625,824.1351318359375,850.454833984375,815.9102783203125
/muse/eeg,840.5849609375,830.715087890625,857.0347290039062,817.5552368164062
/muse/eeg,838.9400024414062,832.3600463867188,853.7448120117188,817.5552368164062
/muse/eeg,848.8098754882812,835.6500244140625,858.6797485351562,812.6203002929688
/muse/eeg,848.8098754882812,835.6500244140625,850.454833984375,822.4901733398438
/muse/eeg,824.1351318359375,827.4251098632812,848.8098754882812,812.6203002929688
/muse/eeg,842.2299194335938,830.715087890625,852.0997924804688,815.9102783203125
/muse/eeg,838.9400024414062,830.715087890625,852.0997924804688,804.3953857421875
/muse/eeg,840.5849609375,829.070068359375,852.0997924804688,825.7801513671875
/muse/eeg,834.0050048828125,827.4251098632812,852.0997924804688,807.6853637695312
/muse/eeg,829.070068359375,829.070068359375,848.8098754882812,810.9752807617188
/muse/eeg,825.7801513671875,825.7801513671875,848.8098754882812,809.330322265625
/muse/eeg,850.454833984375,832.3600463867188,855.3897705078125,809.330322265625
/muse/eeg,848.8098754882812,834.0050048828125,855.3897705078125,814.2652587890625
/muse/eeg,857.0347290039062,834.0050048828125,852.0997924804688,815.9102783203125
/muse/eeg,865.2596435546875,830.715087890625,848.8098754882812,845.5198974609375
/muse/eeg,820.84521484375,825.7801513671875,853.7448120117188,799.46044921875
/muse/eeg,806.0403442382812,830.715087890625,852.0997924804688,784.6556396484375
/muse/eeg,809.330322265625,832.3600463867188,858.6797485351562,786.3005981445312
/muse/eeg,815.9102783203125,835.6500244140625,855.3897705078125,791.2355346679688
/muse/eeg,806.0403442382812,832.3600463867188,850.454833984375,789.590576171875
/muse/eeg,791.2355346679688,830.715087890625,852.0997924804688,781.3656616210938
/muse/eeg,789.590576171875,834.0050048828125,852.0997924804688,771.4957885742188
/muse/eeg,779.720703125,837.2949829101562,847.1648559570312,774.7857666015625
/muse/eeg,796.1704711914062,834.0050048828125,847.1648559570312,784.6556396484375
/muse/eeg,783.0106201171875,834.0050048828125,843.8749389648438,773.1407470703125
/muse/eeg,804.3953857421875,832.3600463867188,848.8098754882812,787.945556640625
/muse/eeg,801.1054077148438,835.6500244140625,840.5849609375,778.07568359375
/muse/eeg,807.6853637695312,829.070068359375,842.2299194335938,791.2355346679688
/muse/eeg,815.9102783203125,832.3600463867188,845.5198974609375,787.945556640625
/muse/eeg,817.5552368164062,830.715087890625,842.2299194335938,804.3953857421875
/muse/eeg,842.2299194335938,832.3600463867188,852.0997924804688,807.6853637695312
/muse/eeg,837.2949829101562,830.715087890625,845.5198974609375,810.9752807617188
/muse/eeg,827.4251098632812,825.7801513671875,843.8749389648438,814.2652587890625
/muse/eeg,837.2949829101562,832.3600463867188,845.5198974609375,822.4901733398438
/muse/eeg,827.4251098632812,829.070068359375,842.2299194335938,814.2652587890625
/muse/eeg,830.715087890625,827.4251098632812,850.454833984375,804.3953857421875
/muse/eeg,838.9400024414062,827.4251098632812,847.1648559570312,822.4901733398438
/muse/eeg,829.070068359375,824.1351318359375,847.1648559570312,807.6853637695312
/muse/eeg,830.715087890625,825.7801513671875,843.8749389648438,814.2652587890625
/muse/eeg,815.9102783203125,822.4901733398438,838.9400024414062,802.7504272460938
/muse/eeg,820.84521484375,822.4901733398438,847.1648559570312,817.5552368164062
/muse/eeg,832.3600463867188,825.7801513671875,852.0997924804688,807.6853637695312
/muse/eeg,835.6500244140625,830.715087890625,850.454833984375,815.9102783203125
/muse/eeg,840.5849609375,825.7801513671875,852.0997924804688,810.9752807617188
/muse/eeg,845.5198974609375,824.1351318359375,855.3897705078125,815.9102783203125
/muse/eeg,834.0050048828125,827.4251098632812,850.454833984375,817.5552368164062
/muse/eeg,843.8749389648438,827.4251098632812,858.6797485351562,802.7504272460938
/muse/eeg,843.8749389648438,832.3600463867188,850.454833984375,819.2001953125
/muse/eeg,834.0050048828125,830.715087890625,847.1648559570312,804.3953857421875
/muse/eeg,834.0050048828125,830.715087890625,848.8098754882812,812.6203002929688
/muse/eeg,837.2949829101562,830.715087890625,850.454833984375,804.3953857421875
/muse/eeg,855.3897705078125,832.3600463867188,848.8098754882812,827.4251098632812
/muse/eeg,848.8098754882812,830.715087890625,853.7448120117188,819.2001953125
/muse/eeg,835.6500244140625,827.4251098632812,852.0997924804688,812.6203002929688
/muse/eeg,845.5198974609375,829.070068359375,848.8098754882812,832.3600463867188
/muse/eeg,853.7448120117188,835.6500244140625,853.7448120117188,829.070068359375
/muse/eeg,845.5198974609375,832.3600463867188,847.1648559570312,830.715087890625
/muse/eeg,834.0050048828125,832.3600463867188,845.5198974609375,822.4901733398438
/muse/eeg,830.715087890625,825.7801513671875,838.9400024414062,830.715087890625
/muse/eeg,834.0050048828125,829.070068359375,850.454833984375,814.2652587890625
/muse/eeg,843.8749389648438,832.3600463867188,850.454833984375,820.84521484375
/muse/eeg,848.8098754882812,832.3600463867188,853.7448120117188,814.2652587890625
/muse/eeg,848.8098754882812,829.070068359375,853.7448120117188,825.7801513671875
/muse/eeg,834.0050048828125,825.7801513671875,845.5198974609375,824.1351318359375
/muse/eeg,842.2299194335938,824.1351318359375,853.7448120117188,820.84521484375
/muse/eeg,848.8098754882812,829.070068359375,855.3897705078125,830.715087890625
/muse/eeg,840.5849609375,829.070068359375,853.7448120117188,820.84521484375
/muse/eeg,842.2299194335938,827.4251098632812,853.7448120117188,825.7801513671875
/muse/eeg,838.9400024414062,829.070068359375,853.7448120117188,815.9102783203125
/muse/eeg,842.2299194335938,829.070068359375,853.7448120117188,830.715087890625
/muse/eeg,832.3600463867188,825.7801513671875,853.7448120117188,810.9752807617188
/muse/eeg,850.454833984375,834.0050048828125,855.3897705078125,817.5552368164062
/muse/eeg,837.2949829101562,827.4251098632812,852.0997924804688,817.5552368164062
/muse/eeg,842.2299194335938,824.1351318359375,848.8098754882812,827.4251098632812
/muse/eeg,848.8098754882812,830.715087890625,850.454833984375,827.4251098632812
/muse/eeg,838.9400024414062,824.1351318359375,848.8098754882812,820.84521484375
/muse/eeg,848.8098754882812,827.4251098632812,852.0997924804688,837.2949829101562
/muse/eeg,848.8098754882812,829.070068359375,858.6797485351562,829.070068359375
/muse/eeg,850.454833984375,830.715087890625,857.0347290039062,827.4251098632812
/muse/eeg,852.0997924804688,834.0050048828125,857.0347290039062,822.4901733398438
/muse/eeg,848.8098754882812,830.715087890625,853.7448120117188,835.6500244140625
/muse/eeg,832.3600463867188,827.4251098632812,850.454833984375,820.84521484375
/muse/eeg,835.6500244140625,830.715087890625,853.7448120117188,829.070068359375
/muse/eeg,845.5198974609375,829.070068359375,853.7448120117188,825.7801513671875
/muse/eeg,863.6146850585938,834.0050048828125,855.3897705078125,837.2949829101562
/muse/eeg,850.454833984375,829.070068359375,853.7448120117188,830.715087890625
/muse/eeg,840.5849609375,824.1351318359375,853.7448120117188,825.7801513671875
/muse/eeg,853.7448120117188,829.070068359375,857.0347290039062,835.6500244140625
/muse/eeg,842.2299194335938,827.4251098632812,853.7448120117188,824.1351318359375
/muse/eeg,855.3897705078125,832.3600463867188,853.7448120117188,838.9400024414062
/muse/eeg,827.4251098632812,830.715087890625,850.454833984375,824.1351318359375
/muse/eeg,834.0050048828125,832.3600463867188,853.7448120117188,837.2949829101562
/muse/eeg,842.2299194335938,835.6500244140625,853.7448120117188,824.1351318359375
/muse/eeg,838.9400024414062,834.0050048828125,852.0997924804688,829.070068359375
/muse/eeg,855.3897705078125,835.6500244140625,855.3897705078125,824.1351318359375
/muse/eeg,848.8098754882812,829.070068359375,850.454833984375,827.4251098632812
/muse/eeg,848.8098754882812,829.070068359375,857.0347290039062,822.4901733398438
/muse/eeg,837.2949829101562,832.3600463867188,852.0997924804688,815.9102783203125
/muse/eeg,837.2949829101562,825.7801513671875,852.0997924804688,827.4251098632812
/muse/eeg,835.6500244140625,829.070068359375,853.7448120117188,819.2001953125
/muse/eeg,824.1351318359375,825.7801513671875,845.5198974609375,824.1351318359375
/muse/eeg,830.715087890625,824.1351318359375,857.0347290039062,814.2652587890625
/muse/eeg,840.5849609375,832.3600463867188,850.454833984375,830.715087890625
/muse/eeg,824.1351318359375,827.4251098632812,853.7448120117188,817.5552368164062
/muse/eeg,827.4251098632812,827.4251098632812,852.0997924804688,817.5552368164062
/muse/eeg,817.5552368164062,825.7801513671875,845.5198974609375,810.9752807617188
/muse/eeg,817.5552368164062,820.84521484375,850.454833984375,815.9102783203125
/muse/eeg,822.4901733398438,822.4901733398438,850.454833984375,810.9752807617188
/muse/eeg,820.84521484375,822.4901733398438,848.8098754882812,809.330322265625
/muse/eeg,830.715087890625,827.4251098632812,852.0997924804688,825.7801513671875
/muse/eeg,825.7801513671875,822.4901733398438,852.0997924804688,812.6203002929688
/muse/eeg,834.0050048828125,829.070068359375,855.3897705078125,814.2652587890625
/muse/eeg,829.070068359375,830.715087890625,855.3897705078125,802.7504272460938
/muse/eeg,845.5198974609375,830.715087890625,853.7448120117188,824.1351318359375
/muse/eeg,825.7801513671875,830.715087890625,850.454833984375,812.6203002929688
/muse/eeg,830.715087890625,832.3600463867188,852.0997924804688,815.9102783203125
/muse/eeg,832.3600463867188,832.3600463867188,852.0997924804688,814.2652587890625
/muse/eeg,837.2949829101562,830.715087890625,853.7448120117188,822.4901733398438
/muse/eeg,834.0050048828125,830.715087890625,860.32470703125,820.84521484375
/muse/eeg,830.715087890625,829.070068359375,855.3897705078125,817.5552368164062
/muse/eeg,845.5198974609375,832.3600463867188,855.3897705078125,829.070068359375
/muse/eeg,850.454833984375,834.0050048828125,855.3897705078125,814.2652587890625
/muse/eeg,855.3897705078125,835.6500244140625,852.0997924804688,820.84521484375
/muse/eeg,855.3897705078125,835.6500244140625,850.454833984375,809.330322265625
/muse/eeg,870.194580078125,832.3600463867188,850.454833984375,820.84521484375
/muse/eeg,865.2596435546875,835.6500244140625,848.8098754882812,810.9752807617188
/muse/eeg,863.6146850585938,832.3600463867188,848.8098754882812,815.9102783203125
/muse/eeg,871.839599609375,835.6500244140625,853.7448120117188,824.1351318359375
/muse/eeg,847.1648559570312,832.3600463867188,845.5198974609375,824.1351318359375
/muse/eeg,830.715087890625,825.7801513671875,847.1648559570312,822.4901733398438
/muse/eeg,824.1351318359375,825.7801513671875,848.8098754882812,822.4901733398438
/muse/eeg,835.6500244140625,822.4901733398438,852.0997924804688,835.6500244140625
/muse/eeg,829.070068359375,824.1351318359375,852.0997924804688,822.4901733398438
/muse/eeg,837.2949829101562,827.4251098632812,848.8098754882812,827.4251098632812
/muse/eeg,838.9400024414062,825.7801513671875,852.0997924804688,820.84521484375
/muse/eeg,838.9400024414062,827.4251098632812,850.454833984375,834.0050048828125
/muse/eeg,830.715087890625,824.1351318359375,847.1648559570312,815.9102783203125
/muse/eeg,842.2299194335938,827.4251098632812,852.0997924804688,820.84521484375
/muse/eeg,834.0050048828125,825.7801513671875,845.5198974609375,827.4251098632812
/muse/eeg,855.3897705078125,825.7801513671875,853.7448120117188,825.7801513671875
/muse/eeg,853.7448120117188,825.7801513671875,852.0997924804688,824.1351318359375
/muse/eeg,850.454833984375,825.7801513671875,853.7448120117188,825.7801513671875
/muse/eeg,847.1648559570312,827.4251098632812,852.0997924804688,837.2949829101562
/muse/eeg,840.5849609375,827.4251098632812,853.7448120117188,827.4251098632812
/muse/eeg,842.2299194335938,827.4251098632812,853.7448120117188,834.0050048828125
/muse/eeg,840.5849609375,824.1351318359375,853.7448120117188,829.070068359375
/muse/eeg,855.3897705078125,827.4251098632812,855.3897705078125,837.2949829101562
/muse/eeg,827.4251098632812,825.7801513671875,848.8098754882812,817.5552368164062
/muse/eeg,835.6500244140625,827.4251098632812,853.7448120117188,829.070068359375
/muse/eeg,852.0997924804688,827.4251098632812,857.0347290039062,840.5849609375
/muse/eeg,840.5849609375,822.4901733398438,852.0997924804688,827.4251098632812
/muse/eeg,842.2299194335938,825.7801513671875,857.0347290039062,827.4251098632812
/muse/eeg,848.8098754882812,827.4251098632812,855.3897705078125,837.2949829101562
/muse/eeg,861.9697265625,825.7801513671875,857.0347290039062,842.2299194335938
/muse/eeg,843.8749389648438,827.4251098632812,852.0997924804688,815.9102783203125
/muse/eeg,852.0997924804688,825.7801513671875,853.7448120117188,829.070068359375
/muse/eeg,842.2299194335938,824.1351318359375,850.454833984375,842.2299194335938
/muse/eeg,838.9400024414062,824.1351318359375,853.7448120117188,840.5849609375
/muse/eeg,842.2299194335938,825.7801513671875,857.0347290039062,822.4901733398438
/muse/eeg,852.0997924804688,824.1351318359375,853.7448120117188,830.715087890625
/muse/eeg,865.2596435546875,825.7801513671875,853.7448120117188,838.9400024414062
/muse/eeg,850.454833984375,824.1351318359375,850.454833984375,830.715087890625
/muse/eeg,863.6146850585938,822.4901733398438,855.3897705078125,830.715087890625
/muse/eeg,845.5198974609375,825.7801513671875,848.8098754882812,825.7801513671875
/muse/eeg,842.2299194335938,825.7801513671875,847.1648559570312,837.2949829101562
/muse/eeg,830.715087890625,825.7801513671875,845.5198974609375,819.2001953125
/muse/eeg,838.9400024414062,825.7801513671875,850.454833984375,822.4901733398438
/muse/eeg,857.0347290039062,829.070068359375,855.3897705078125,815.9102783203125
/muse/eeg,863.6146850585938,825.7801513671875,852.0997924804688,827.4251098632812
/muse/eeg,848.8098754882812,827.4251098632812,850.454833984375,822.4901733398438
/muse/eeg,835.6500244140625,824.1351318359375,847.1648559570312,815.9102783203125
/muse/eeg,838.9400024414062,824.1351318359375,848.8098754882812,819.2001953125
/muse/eeg,855.3897705078125,827.4251098632812,855.3897705078125,822.4901733398438
/muse/eeg,857.0347290039062,829.070068359375,852.0997924804688,819.2001953125
/muse/eeg,830.715087890625,829.070068359375,852.0997924804688,804.3953857421875
/muse/eeg,855.3897705078125,834.0050048828125,857.0347290039062,814.2652587890625
/muse/eeg,843.8749389648438,832.3600463867188,850.454833984375,809.330322265625
/muse/eeg,847.1648559570312,830.715087890625,850.454833984375,812.6203002929688
/muse/eeg,847.1648559570312,829.070068359375,855.3897705078125,802.7504272460938
/muse/eeg,850.454833984375,832.3600463867188,855.3897705078125,817.5552368164062
/muse/eeg,847.1648559570312,834.0050048828125,855.3897705078125,809.330322265625
/muse/eeg,835.6500244140625,829.070068359375,858.6797485351562,824.1351318359375
/muse/eeg,837.2949829101562,832.3600463867188,857.0347290039062,819.2001953125
/muse/eeg,845.5198974609375,832.3600463867188,855.3897705078125,829.070068359375
/muse/eeg,842.2299194335938,830.715087890625,853.7448120117188,819.2001953125
/muse/eeg,824.1351318359375,827.4251098632812,848.8098754882812,824.1351318359375
/muse/eeg,812.6203002929688,825.7801513671875,847.1648559570312,817.5552368164062
/muse/eeg,832.3600463867188,827.4251098632812,853.7448120117188,829.070068359375
/muse/eeg,840.5849609375,832.3600463867188,857.0347290039062,824.1351318359375
/muse/eeg,845.5198974609375,832.3600463867188,860.32470703125,820.84521484375
/muse/eeg,842.2299194335938,834.0050048828125,860.32470703125,824.1351318359375
/muse/eeg,830.715087890625,830.715087890625,855.3897705078125,824.1351318359375
/muse/eeg,835.6500244140625,830.715087890625,858.6797485351562,825.7801513671875
/muse/eeg,843.8749389648438,832.3600463867188,857.0347290039062,825.7801513671875
/muse/eeg,847.1648559570312,834.0050048828125,853.7448120117188,832.3600463867188
/muse/eeg,837.2949829101562,834.0050048828125,853.7448120117188,822.4901733398438
/muse/eeg,848.8098754882812,835.6500244140625,855.3897705078125,830.715087890625
/muse/eeg,850.454833984375,834.0050048828125,855.3897705078125,820.84521484375
/muse/eeg,857.0347290039062,835.6500244140625,857.0347290039062,832.3600463867188
/muse/eeg,853.7448120117188,837.2949829101562,850.454833984375,825.7801513671875
/muse/eeg,838.9400024414062,830.715087890625,847.1648559570312,820.84521484375
/muse/eeg,845.5198974609375,834.0050048828125,852.0997924804688,824.1351318359375
/muse/eeg,842.2299194335938,832.3600463867188,852.0997924804688,822.4901733398438
/muse/eeg,840.5849609375,830.715087890625,852.0997924804688,825.7801513671875
/muse/eeg,838.9400024414062,834.0050048828125,850.454833984375,815.9102783203125
/muse/eeg,855.3897705078125,832.3600463867188,855.3897705078125,827.4251098632812
/muse/eeg,852.0997924804688,834.0050048828125,855.3897705078125,817.5552368164062
/muse/eeg,848.8098754882812,835.6500244140625,855.3897705078125,824.1351318359375
/muse/eeg,843.8749389648438,832.3600463867188,853.7448120117188,825.7801513671875
/muse/eeg,850.454833984375,832.3600463867188,853.7448120117188,834.0050048828125
/muse/eeg,840.5849609375,832.3600463867188,855.3897705078125,822.4901733398438
/muse/eeg,848.8098754882812,834.0050048828125,857.0347290039062,820.84521484375
/muse/eeg,847.1648559570312,835.6500244140625,853.7448120117188,827.4251098632812
/muse/eeg,838.9400024414062,834.0050048828125,852.0997924804688,822.4901733398438
/muse/eeg,853.7448120117188,834.0050048828125,857.0347290039062,830.715087890625
/muse/eeg,842.2299194335938,838.9400024414062,855.3897705078125,822.4901733398438
/muse/eeg,843.8749389648438,838.9400024414062,853.7448120117188,827.4251098632812
/muse/eeg,843.8749389648438,840.5849609375,853.7448120117188,817.5552368164062
/muse/eeg,830.715087890625,835.6500244140625,850.454833984375,822.4901733398438
/muse/eeg,843.8749389648438,835.6500244140625,857.0347290039062,819.2001953125
/muse/eeg,860.32470703125,838.9400024414062,860.32470703125,829.070068359375
/muse/eeg,853.7448120117188,838.9400024414062,858.6797485351562,822.4901733398438
/muse/eeg,842.2299194335938,837.2949829101562,853.7448120117188,824.1351318359375
/muse/eeg,845.5198974609375,834.0050048828125,852.0997924804688,822.4901733398438
/muse/eeg,852.0997924804688,835.6500244140625,853.7448120117188,817.5552368164062
/muse/eeg,850.454833984375,834.0050048828125,853.7448120117188,817.5552368164062
/muse/eeg,853.7448120117188,835.6500244140625,860.32470703125,812.6203002929688
/muse/eeg,827.4251098632812,834.0050048828125,853.7448120117188,829.070068359375
/muse/eeg,820.84521484375,830.715087890625,855.3897705078125,817.5552368164062
/muse/eeg,830.715087890625,830.715087890625,857.0347290039062,824.1351318359375
/muse/eeg,834.0050048828125,830.715087890625,855.3897705078125,819.2001953125
/muse/eeg,840.5849609375,827.4251098632812,855.3897705078125,822.4901733398438
/muse/eeg,829.070068359375,829.070068359375,855.3897705078125,819.2001953125
/muse/eeg,832.3600463867188,830.715087890625,858.6797485351562,819.2001953125
/muse/eeg,838.9400024414062,829.070068359375,855.3897705078125,827.4251098632812
/muse/eeg,838.9400024414062,829.070068359375,855.3897705078125,815.9102783203125
/muse/eeg,832.3600463867188,829.070068359375,850.454833984375,815.9102783203125
/muse/eeg,843.8749389648438,832.3600463867188,850.454833984375,807.6853637695312
/muse/eeg,873.4845581054688,835.6500244140625,857.0347290039062,817.5552368164062
/muse/eeg,863.6146850585938,835.6500244140625,850.454833984375,804.3953857421875
/muse/eeg,880.064453125,837.2949829101562,855.3897705078125,817.5552368164062
/muse/eeg,873.4845581054688,835.6500244140625,855.3897705078125,817.5552368164062
/muse/eeg,875.1295166015625,837.2949829101562,857.0347290039062,825.7801513671875
/muse/eeg,860.32470703125,838.9400024414062,857.0347290039062,824.1351318359375
/muse/eeg,840.5849609375,834.0050048828125,850.454833984375,825.7801513671875
/muse/eeg,847.1648559570312,832.3600463867188,852.0997924804688,832.3600463867188
/muse/eeg,840.5849609375,834.0050048828125,848.8098754882812,825.7801513671875
/muse/eeg,858.6797485351562,835.6500244140625,855.3897705078125,834.0050048828125
/muse/eeg,852.0997924804688,835.6500244140625,855.3897705078125,829.070068359375
/muse/eeg,845.5198974609375,832.3600463867188,852.0997924804688,835.6500244140625
/muse/eeg,840.5849609375,832.3600463867188,853.7448120117188,820.84521484375
/muse/eeg,837.2949829101562,830.715087890625,847.1648559570312,829.070068359375
/muse/eeg,853.7448120117188,832.3600463867188,848.8098754882812,838.9400024414062
/muse/eeg,866.9046630859375,834.0050048828125,848.8098754882812,850.454833984375
/muse/eeg,817.5552368164062,824.1351318359375,850.454833984375,814.2652587890625
/muse/eeg,827.4251098632812,832.3600463867188,857.0347290039062,810.9752807617188
/muse/eeg,835.6500244140625,834.0050048828125,857.0347290039062,825.7801513671875
/muse/eeg,819.2001953125,834.0050048828125,855.3897705078125,806.0403442382812
/muse/eeg,838.9400024414062,832.3600463867188,860.32470703125,819.2001953125
/muse/eeg,824.1351318359375,829.070068359375,860.32470703125,804.3953857421875
/muse/eeg,819.2001953125,830.715087890625,858.6797485351562,814.2652587890625
/muse/eeg,810.9752807617188,832.3600463867188,857.0347290039062,809.330322265625
/muse/eeg,827.4251098632812,834.0050048828125,858.6797485351562,830.715087890625
/muse/eeg,814.2652587890625,830.715087890625,857.0347290039062,830.715087890625
/muse/eeg,817.5552368164062,829.070068359375,860.32470703125,837.2949829101562
/muse/eeg,835.6500244140625,834.0050048828125,858.6797485351562,852.0997924804688
/muse/eeg,812.6203002929688,830.715087890625,852.0997924804688,843.8749389648438
/muse/eeg,829.070068359375,829.070068359375,860.32470703125,866.9046630859375
/muse/eeg,832.3600463867188,830.715087890625,865.2596435546875,876.7745361328125
/muse/eeg,835.6500244140625,829.070068359375,860.32470703125,875.1295166015625
/muse/eeg,840.5849609375,830.715087890625,855.3897705078125,843.8749389648438
/muse/eeg,837.2949829101562,832.3600463867188,850.454833984375,834.0050048828125
/muse/eeg,834.0050048828125,830.715087890625,850.454833984375,802.7504272460938
/muse/eeg,835.6500244140625,830.715087890625,855.3897705078125,809.330322265625
/muse/eeg,832.3600463867188,830.715087890625,852.0997924804688,819.2001953125
/muse/eeg,838.9400024414062,830.715087890625,850.454833984375,815.9102783203125
/muse/eeg,835.6500244140625,827.4251098632812,847.1648559570312,834.0050048828125
/muse/eeg,838.9400024414062,827.4251098632812,850.454833984375,842.2299194335938
/muse/eeg,817.5552368164062,825.7801513671875,850.454833984375,825.7801513671875
/muse/eeg,815.9102783203125,825.7801513671875,852.0997924804688,809.330322265625
/muse/eeg,830.715087890625,834.0050048828125,852.0997924804688,824.1351318359375
/muse/eeg,827.4251098632812,834.0050048828125,853.7448120117188,815.9102783203125
/muse/eeg,840.5849609375,832.3600463867188,855.3897705078125,835.6500244140625
/muse/eeg,835.6500244140625,832.3600463867188,857.0347290039062,824.1351318359375
/muse/eeg,827.4251098632812,827.4251098632812,853.7448120117188,824.1351318359375
/muse/eeg,837.2949829101562,827.4251098632812,853.7448120117188,834.0050048828125
/muse/eeg,847.1648559570312,829.070068359375,857.0347290039062,834.0050048828125
/muse/eeg,835.6500244140625,825.7801513671875,857.0347290039062,825.7801513671875
/muse/eeg,838.9400024414062,830.715087890625,857.0347290039062,819.2001953125
/muse/eeg,842.2299194335938,827.4251098632812,852.0997924804688,825.7801513671875
/muse/eeg,840.5849609375,827.4251098632812,857.0347290039062,807.6853637695312
/muse/eeg,837.2949829101562,827.4251098632812,848.8098754882812,817.5552368164062
/muse/eeg,832.3600463867188,825.7801513671875,853.7448120117188,810.9752807617188
/muse/eeg,848.8098754882812,829.070068359375,855.3897705078125,824.1351318359375
/muse/eeg,832.3600463867188,827.4251098632812,848.8098754882812,817.5552368164062
/muse/eeg,848.8098754882812,827.4251098632812,857.0347290039062,817.5552368164062
/muse/eeg,847.1648559570312,827.4251098632812,853.7448120117188,822.4901733398438
/muse/eeg,842.2299194335938,829.070068359375,855.3897705078125,815.9102783203125
/muse/eeg,838.9400024414062,829.070068359375,852.0997924804688,817.5552368164062
/muse/eeg,827.4251098632812,825.7801513671875,850.454833984375,809.330322265625
/muse/eeg,838.9400024414062,825.7801513671875,853.7448120117188,819.2001953125
/muse/eeg,838.9400024414062,827.4251098632812,853.7448120117188,814.2652587890625
/muse/eeg,847.1648559570312,829.070068359375,857.0347290039062,819.2001953125
/muse/eeg,847.1648559570312,830.715087890625,852.0997924804688,812.6203002929688
/muse/eeg,843.8749389648438,827.4251098632812,848.8098754882812,820.84521484375
/muse/eeg,835.6500244140625,825.7801513671875,850.454833984375,814.2652587890625
/muse/eeg,845.5198974609375,829.070068359375,855.3897705078125,815.9102783203125
/muse/eeg,843.8749389648438,829.070068359375,853.7448120117188,822.4901733398438
/muse/eeg,845.5198974609375,832.3600463867188,852.0997924804688,825.7801513671875
/muse/eeg,837.2949829101562,830.715087890625,853.7448120117188,827.4251098632812
/muse/eeg,835.6500244140625,827.4251098632812,853.7448120117188,820.84521484375
/muse/eeg,848.8098754882812,830.715087890625,857.0347290039062,827.4251098632812
/muse/eeg,850.454833984375,829.070068359375,858.6797485351562,817.5552368164062
/muse/eeg,848.8098754882812,827.4251098632812,855.3897705078125,829.070068359375
/muse/eeg,835.6500244140625,825.7801513671875,857.0347290039062,819.2001953125
/muse/eeg,847.1648559570312,827.4251098632812,860.32470703125,830.715087890625
/muse/eeg,837.2949829101562,829.070068359375,857.0347290039062,827.4251098632812
/muse/eeg,835.6500244140625,830.715087890625,857.0347290039062,829.070068359375
/muse/eeg,832.3600463867188,829.070068359375,852.0997924804688,832.3600463867188
/muse/eeg,837.2949829101562,825.7801513671875,858.6797485351562,829.070068359375
/muse/eeg,843.8749389648438,829.070068359375,858.6797485351562,829.070068359375
/muse/eeg,848.8098754882812,830.715087890625,861.9697265625,820.84521484375
/muse/eeg,852.0997924804688,832.3600463867188,857.0347290039062,834.0050048828125
/muse/eeg,837.2949829101562,829.070068359375,857.0347290039062,822.4901733398438
/muse/eeg,842.2299194335938,827.4251098632812,858.6797485351562,827.4251098632812
/muse/eeg,847.1648559570312,832.3600463867188,860.32470703125,820.84521484375
/muse/eeg,853.7448120117188,834.0050048828125,858.6797485351562,832.3600463867188
/muse/eeg,843.8749389648438,834.0050048828125,857.0347290039062,824.1351318359375
/muse/eeg,838.9400024414062,830.715087890625,857.0347290039062,817.5552368164062
/muse/eeg,840.5849609375,830.715087890625,855.3897705078125,822.4901733398438
/muse/eeg,840.5849609375,829.070068359375,853.7448120117188,822.4901733398438
/muse/eeg,845.5198974609375,830.715087890625,852.0997924804688,825.7801513671875
/muse/eeg,830.715087890625,825.7801513671875,852.0997924804688,822.4901733398438
/muse/eeg,848.8098754882812,829.070068359375,860.32470703125,829.070068359375
/muse/eeg,853.7448120117188,835.6500244140625,861.9697265625,822.4901733398438
/muse/eeg,853.7448120117188,834.0050048828125,857.0347290039062,827.4251098632812
/muse/eeg,848.8098754882812,835.6500244140625,853.7448120117188,820.84521484375
/muse/eeg,838.9400024414062,827.4251098632812,852.0997924804688,824.1351318359375
/muse/eeg,838.9400024414062,827.4251098632812,855.3897705078125,819.2001953125
/muse/eeg,848.8098754882812,832.3600463867188,861.9697265625,820.84521484375
/muse/eeg,847.1648559570312,832.3600463867188,857.0347290039062,822.4901733398438
/muse/eeg,838.9400024414062,829.070068359375,852.0997924804688,814.2652587890625
/muse/eeg,827.4251098632812,827.4251098632812,848.8098754882812,820.84521484375
/muse/eeg,832.3600463867188,829.070068359375,850.454833984375,814.2652587890625
/muse/eeg,843.8749389648438,829.070068359375,853.7448120117188,824.1351318359375
/muse/eeg,847.1648559570312,834.0050048828125,857.0347290039062,819.2001953125
/muse/eeg,835.6500244140625,834.0050048828125,853.7448120117188,820.84521484375
/muse/eeg,837.2949829101562,832.3600463867188,855.3897705078125,817.5552368164062
/muse/eeg,850.454833984375,835.6500244140625,855.3897705078125,824.1351318359375
/muse/eeg,842.2299194335938,832.3600463867188,855.3897705078125,817.5552368164062
/muse/eeg,853.7448120117188,837.2949829101562,860.32470703125,810.9752807617188
/muse/eeg,845.5198974609375,835.6500244140625,853.7448120117188,819.2001953125
/muse/eeg,843.8749389648438,832.3600463867188,855.3897705078125,814.2652587890625
/muse/eeg,847.1648559570312,830.715087890625,855.3897705078125,825.7801513671875
/muse/eeg,845.5198974609375,830.715087890625,858.6797485351562,819.2001953125
/muse/eeg,845.5198974609375,829.070068359375,858.6797485351562,830.715087890625
/muse/eeg,832.3600463867188,829.070068359375,855.3897705078125,814.2652587890625
/muse/eeg,837.2949829101562,829.070068359375,857.0347290039062,819.2001953125
/muse/eeg,840.5849609375,829.070068359375,858.6797485351562,819.2001953125
/muse/eeg,842.2299194335938,827.4251098632812,858.6797485351562,827.4251098632812
/muse/eeg,840.5849609375,829.070068359375,858.6797485351562,829.070068359375
/muse/eeg,842.2299194335938,829.070068359375,860.32470703125,829.070068359375
/muse/eeg,842.2299194335938,830.715087890625,858.6797485351562,827.4251098632812
/muse/eeg,842.2299194335938,832.3600463867188,857.0347290039062,822.4901733398438
/muse/eeg,842.2299194335938,832.3600463867188,857.0347290039062,825.7801513671875
/muse/eeg,829.070068359375,830.715087890625,852.0997924804688,814.2652587890625
/muse/eeg,847.1648559570312,830.715087890625,858.6797485351562,824.1351318359375
/muse/eeg,842.2299194335938,835.6500244140625,855.3897705078125,812.6203002929688
/muse/eeg,852.0997924804688,834.0050048828125,858.6797485351562,814.2652587890625
/muse/eeg,857.0347290039062,838.9400024414062,857.0347290039062,812.6203002929688
/muse/eeg,852.0997924804688,835.6500244140625,853.7448120117188,820.84521484375
/muse/eeg,845.5198974609375,837.2949829101562,858.6797485351562,824.1351318359375
/muse/eeg,845.5198974609375,837.2949829101562,858.6797485351562,820.84521484375
/muse/eeg,850.454833984375,835.6500244140625,858.6797485351562,827.4251098632812
/muse/eeg,845.5198974609375,832.3600463867188,858.6797485351562,815.9102783203125
/muse/eeg,847.1648559570312,832.3600463867188,858.6797485351562,822.4901733398438
/muse/eeg,835.6500244140625,830.715087890625,860.32470703125,817.5552368164062
/muse/eeg,843.8749389648438,830.715087890625,857.0347290039062,824.1351318359375
/muse/eeg,840.5849609375,830.715087890625,858.6797485351562,815.9102783203125
/muse/eeg,832.3600463867188,829.070068359375,852.0997924804688,817.5552368164062
/muse/eeg,834.0050048828125,829.070068359375,853.7448120117188,809.330322265625
/muse/eeg,847.1648559570312,832.3600463867188,860.32470703125,809.330322265625
/muse/eeg,848.8098754882812,834.0050048828125,858.6797485351562,815.9102783203125
/muse/eeg,842.2299194335938,834.0050048828125,857.0347290039062,814.2652587890625
/muse/eeg,830.715087890625,830.715087890625,852.0997924804688,822.4901733398438
/muse/eeg,829.070068359375,832.3600463867188,853.7448120117188,815.9102783203125
/muse/eeg,837.2949829101562,832.3600463867188,855.3897705078125,817.5552368164062
/muse/eeg,847.1648559570312,832.3600463867188,860.32470703125,810.9752807617188
/muse/eeg,845.5198974609375,834.0050048828125,857.0347290039062,829.070068359375
/muse/eeg,835.6500244140625,834.0050048828125,857.0347290039062,820.84521484375
/muse/eeg,837.2949829101562,835.6500244140625,855.3897705078125,825.7801513671875
/muse/eeg,847.1648559570312,837.2949829101562,861.9697265625,815.9102783203125
/muse/eeg,855.3897705078125,835.6500244140625,861.9697265625,825.7801513671875
/muse/eeg,847.1648559570312,834.0050048828125,860.32470703125,819.2001953125
/muse/eeg,837.2949829101562,832.3600463867188,855.3897705078125,812.6203002929688
/muse/eeg,848.8098754882812,832.3600463867188,857.0347290039062,822.4901733398438
/muse/eeg,853.7448120117188,837.2949829101562,857.0347290039062,815.9102783203125
/muse/eeg,850.454833984375,834.0050048828125,855.3897705078125,822.4901733398438
/muse/eeg,855.3897705078125,837.2949829101562,858.6797485351562,815.9102783203125
/muse/eeg,847.1648559570312,834.0050048828125,855.3897705078125,824.1351318359375
/muse/eeg,850.454833984375,832.3600463867188,861.9697265625,819.2001953125
/muse/eeg,842.2299194335938,835.6500244140625,855.3897705078125,819.2001953125
/muse/eeg,830.715087890625,829.070068359375,853.7448120117188,812.6203002929688
/muse/eeg,843.8749389648438,832.3600463867188,857.0347290039062,820.84521484375
/muse/eeg,832.3600463867188,830.715087890625,853.7448120117188,819.2001953125
/muse/eeg,840.5849609375,830.715087890625,863.6146850585938,815.9102783203125
/muse/eeg,842.2299194335938,832.3600463867188,857.0347290039062,819.2001953125
/muse/eeg,834.0050048828125,832.3600463867188,858.6797485351562,815.9102783203125
/muse/eeg,838.9400024414062,832.3600463867188,860.32470703125,817.5552368164062
/muse/eeg,838.9400024414062,832.3600463867188,858.6797485351562,810.9752807617188
/muse/eeg,834.0050048828125,829.070068359375,857.0347290039062,820.84521484375
/muse/eeg,829.070068359375,827.4251098632812,860.32470703125,810.9752807617188
/muse/eeg,825.7801513671875,825.7801513671875,855.3897705078125,820.84521484375
/muse/eeg,825.7801513671875,824.1351318359375,855.3897705078125,822.4901733398438
/muse/eeg,835.6500244140625,827.4251098632812,860.32470703125,830.715087890625
/muse/eeg,838.9400024414062,830.715087890625,857.0347290039062,829.070068359375
/muse/eeg,838.9400024414062,830.715087890625,857.0347290039062,822.4901733398438
/muse/eeg,843.8749389648438,834.0050048828125,855.3897705078125,830.715087890625
/muse/eeg,840.5849609375,832.3600463867188,850.454833984375,814.2652587890625
/muse/eeg,848.8098754882812,834.0050048828125,850.454833984375,809.330322265625
/muse/eeg,853.7448120117188,837.2949829101562,853.7448120117188,796.1704711914062
/muse/eeg,863.6146850585938,837.2949829101562,852.0997924804688,807.6853637695312
/muse/eeg,870.194580078125,843.8749389648438,853.7448120117188,799.46044921875
/muse/eeg,860.32470703125,842.2299194335938,848.8098754882812,802.7504272460938
/muse/eeg,852.0997924804688,837.2949829101562,847.1648559570312,806.0403442382812
/muse/eeg,853.7448120117188,837.2949829101562,850.454833984375,810.9752807617188
/muse/eeg,837.2949829101562,832.3600463867188,847.1648559570312,812.6203002929688
/muse/eeg,825.7801513671875,829.070068359375,848.8098754882812,806.0403442382812
/muse/eeg,840.5849609375,832.3600463867188,848.8098754882812,815.9102783203125
/muse/eeg,832.3600463867188,834.0050048828125,850.454833984375,806.0403442382812
/muse/eeg,834.0050048828125,832.3600463867188,848.8098754882812,817.5552368164062
/muse/eeg,845.5198974609375,837.2949829101562,853.7448120117188,815.9102783203125
/muse/eeg,838.9400024414062,834.0050048828125,847.1648559570312,822.4901733398438
/muse/eeg,835.6500244140625,834.0050048828125,848.8098754882812,815.9102783203125
/muse/eeg,838.9400024414062,834.0050048828125,853.7448120117188,822.4901733398438
/muse/eeg,847.1648559570312,835.6500244140625,853.7448120117188,825.7801513671875
/muse/eeg,838.9400024414062,834.0050048828125,852.0997924804688,822.4901733398438
/muse/eeg,837.2949829101562,829.070068359375,852.0997924804688,822.4901733398438
/muse/eeg,834.0050048828125,830.715087890625,852.0997924804688,819.2001953125
/muse/eeg,845.5198974609375,830.715087890625,853.7448120117188,830.715087890625
/muse/eeg,840.5849609375,830.715087890625,852.0997924804688,827.4251098632812
/muse/eeg,845.5198974609375,832.3600463867188,853.7448120117188,835.6500244140625
/muse/eeg,845.5198974609375,832.3600463867188,857.0347290039062,824.1351318359375
/muse/eeg,837.2949829101562,830.715087890625,853.7448120117188,829.070068359375
/muse/eeg,842.2299194335938,830.715087890625,858.6797485351562,824.1351318359375
/muse/eeg,832.3600463867188,829.070068359375,853.7448120117188,825.7801513671875
/muse/eeg,832.3600463867188,827.4251098632812,853.7448120117188,829.070068359375
/muse/eeg,845.5198974609375,829.070068359375,861.9697265625,827.4251098632812
/muse/eeg,850.454833984375,832.3600463867188,861.9697265625,834.0050048828125
/muse/eeg,847.1648559570312,830.715087890625,860.32470703125,832.3600463867188
/muse/eeg,847.1648559570312,825.7801513671875,858.6797485351562,845.5198974609375
/muse/eeg,835.6500244140625,825.7801513671875,853.7448120117188,830.715087890625
/muse/eeg,832.3600463867188,827.4251098632812,855.3897705078125,837.2949829101562
/muse/eeg,827.4251098632812,827.4251098632812,855.3897705078125,832.3600463867188
/muse/eeg,855.3897705078125,834.0050048828125,860.32470703125,840.5849609375
/muse/eeg,848.8098754882812,834.0050048828125,857.0347290039062,835.6500244140625
/muse/eeg,842.2299194335938,834.0050048828125,858.6797485351562,824.1351318359375
/muse/eeg,850.454833984375,837.2949829101562,860.32470703125,832.3600463867188
/muse/eeg,837.2949829101562,832.3600463867188,853.7448120117188,829.070068359375
/muse/eeg,838.9400024414062,832.3600463867188,855.3897705078125,832.3600463867188
/muse/eeg,832.3600463867188,829.070068359375,855.3897705078125,832.3600463867188
/muse/eeg,845.5198974609375,827.4251098632812,858.6797485351562,838.9400024414062
/muse/eeg,842.2299194335938,822.4901733398438,860.32470703125,837.2949829101562
/muse/eeg,850.454833984375,822.4901733398438,860.32470703125,842.2299194335938
/muse/eeg,853.7448120117188,835.6500244140625,863.6146850585938,829.070068359375
/muse/eeg,853.7448120117188,837.2949829101562,857.0347290039062,842.2299194335938
/muse/eeg,865.2596435546875,835.6500244140625,860.32470703125,834.0050048828125
/muse/eeg,853.7448120117188,835.6500244140625,852.0997924804688,827.4251098632812
/muse/eeg,847.1648559570312,829.070068359375,848.8098754882812,830.715087890625
/muse/eeg,843.8749389648438,829.070068359375,853.7448120117188,824.1351318359375
/muse/eeg,825.7801513671875,832.3600463867188,847.1648559570312,817.5552368164062
/muse/eeg,850.454833984375,832.3600463867188,853.7448120117188,817.5552368164062
/muse/eeg,853.7448120117188,837.2949829101562,848.8098754882812,824.1351318359375
/muse/eeg,837.2949829101562,834.0050048828125,843.8749389648438,810.9752807617188
/muse/eeg,852.0997924804688,835.6500244140625,847.1648559570312,824.1351318359375
/muse/eeg,835.6500244140625,834.0050048828125,840.5849609375,810.9752807617188
/muse/eeg,860.32470703125,835.6500244140625,840.5849609375,824.1351318359375
/muse/eeg,861.9697265625,837.2949829101562,840.5849609375,830.715087890625
/muse/eeg,865.2596435546875,832.3600463867188,838.9400024414062,835.6500244140625
/muse/eeg,884.9994506835938,830.715087890625,840.5849609375,843.8749389648438
/muse/eeg,875.1295166015625,829.070068359375,835.6500244140625,837.2949829101562
/muse/eeg,883.3544311523438,830.715087890625,834.0050048828125,843.8749389648438
/muse/eeg,886.6444091796875,829.070068359375,838.9400024414062,845.5198974609375
/muse/eeg,889.9343872070312,827.4251098632812,843.8749389648438,866.9046630859375
/muse/eeg,873.4845581054688,827.4251098632812,845.5198974609375,842.2299194335938
/muse/eeg,878.4194946289062,825.7801513671875,848.8098754882812,845.5198974609375
/muse/eeg,881.70947265625,825.7801513671875,848.8098754882812,847.1648559570312
/muse/eeg,884.9994506835938,827.4251098632812,843.8749389648438,855.3897705078125
/muse/eeg,903.09423828125,829.070068359375,852.0997924804688,860.32470703125
/muse/eeg,891.579345703125,829.070068359375,845.5198974609375,861.9697265625
/muse/eeg,891.579345703125,827.4251098632812,847.1648559570312,866.9046630859375
/muse/eeg,893.2243041992188,829.070068359375,850.454833984375,863.6146850585938
/muse/eeg,889.9343872070312,827.4251098632812,845.5198974609375,868.5496215820312
/muse/eeg,871.839599609375,825.7801513671875,845.5198974609375,857.0347290039062
/muse/eeg,880.064453125,827.4251098632812,847.1648559570312,863.6146850585938
/muse/eeg,878.4194946289062,829.070068359375,848.8098754882812,847.1648559570312
/muse/eeg,876.7745361328125,829.070068359375,848.8098754882812,861.9697265625
/muse/eeg,891.579345703125,834.0050048828125,855.3897705078125,866.9046630859375
/muse/eeg,873.4845581054688,830.715087890625,848.8098754882812,853.7448120117188
/muse/eeg,855.3897705078125,827.4251098632812,848.8098754882812,835.6500244140625
/muse/eeg,871.839599609375,830.715087890625,852.0997924804688,845.5198974609375
/muse/eeg,881.70947265625,832.3600463867188,852.0997924804688,853.7448120117188
/muse/eeg,868.5496215820312,832.3600463867188,850.454833984375,835.6500244140625
/muse/eeg,871.839599609375,834.0050048828125,850.454833984375,845.5198974609375
/muse/eeg,873.4845581054688,832.3600463867188,852.0997924804688,847.1648559570312
/muse/eeg,871.839599609375,834.0050048828125,853.7448120117188,845.5198974609375
/muse/eeg,861.9697265625,832.3600463867188,852.0997924804688,830.715087890625
/muse/eeg,865.2596435546875,834.0050048828125,855.3897705078125,838.9400024414062
/muse/eeg,863.6146850585938,832.3600463867188,850.454833984375,845.5198974609375
/muse/eeg,871.839599609375,832.3600463867188,857.0347290039062,840.5849609375
/muse/eeg,873.4845581054688,837.2949829101562,858.6797485351562,837.2949829101562
/muse/eeg,873.4845581054688,834.0050048828125,853.7448120117188,832.3600463867188
/muse/eeg,857.0347290039062,830.715087890625,848.8098754882812,835.6500244140625
/muse/eeg,855.3897705078125,832.3600463867188,853.7448120117188,829.070068359375
/muse/eeg,858.6797485351562,834.0050048828125,857.0347290039062,847.1648559570312
/muse/eeg,843.8749389648438,827.4251098632812,855.3897705078125,834.0050048828125
/muse/eeg,852.0997924804688,829.070068359375,857.0347290039062,838.9400024414062
/muse/eeg,845.5198974609375,829.070068359375,858.6797485351562,829.070068359375
/muse/eeg,848.8098754882812,834.0050048828125,860.32470703125,830.715087890625
/muse/eeg,850.454833984375,834.0050048828125,863.6146850585938,829.070068359375
/muse/eeg,868.5496215820312,837.2949829101562,860.32470703125,834.0050048828125
/muse/eeg,878.4194946289062,834.0050048828125,850.454833984375,855.3897705078125
/muse/eeg,850.454833984375,822.4901733398438,860.32470703125,845.5198974609375
/muse/eeg,819.2001953125,824.1351318359375,863.6146850585938,819.2001953125
/muse/eeg,834.0050048828125,829.070068359375,868.5496215820312,822.4901733398438
/muse/eeg,809.330322265625,829.070068359375,868.5496215820312,806.0403442382812
/muse/eeg,806.0403442382812,835.6500244140625,860.32470703125,786.3005981445312
/muse/eeg,824.1351318359375,829.070068359375,863.6146850585938,819.2001953125
/muse/eeg,791.2355346679688,830.715087890625,866.9046630859375,784.6556396484375
/muse/eeg,796.1704711914062,832.3600463867188,865.2596435546875,781.3656616210938
/muse/eeg,817.5552368164062,834.0050048828125,873.4845581054688,794.5255126953125
/muse/eeg,802.7504272460938,830.715087890625,870.194580078125,796.1704711914062
/muse/eeg,796.1704711914062,829.070068359375,868.5496215820312,787.945556640625
/muse/eeg,812.6203002929688,829.070068359375,870.194580078125,797.8154907226562
/muse/eeg,827.4251098632812,834.0050048828125,870.194580078125,806.0403442382812
/muse/eeg,827.4251098632812,834.0050048828125,868.5496215820312,810.9752807617188
/muse/eeg,835.6500244140625,834.0050048828125,871.839599609375,824.1351318359375
/muse/eeg,829.070068359375,835.6500244140625,863.6146850585938,815.9102783203125
/muse/eeg,829.070068359375,834.0050048828125,863.6146850585938,820.84521484375
/muse/eeg,829.070068359375,837.2949829101562,863.6146850585938,819.2001953125
/muse/eeg,827.4251098632812,837.2949829101562,865.2596435546875,824.1351318359375
/muse/eeg,825.7801513671875,837.2949829101562,865.2596435546875,822.4901733398438
/muse/eeg,820.84521484375,830.715087890625,863.6146850585938,819.2001953125
/muse/eeg,824.1351318359375,832.3600463867188,865.2596435546875,817.5552368164062
/muse/eeg,822.4901733398438,834.0050048828125,865.2596435546875,810.9752807617188
/muse/eeg,835.6500244140625,834.0050048828125,866.9046630859375,819.2001953125
/muse/eeg,830.715087890625,834.0050048828125,866.9046630859375,810.9752807617188
/muse/eeg,822.4901733398438,834.0050048828125,863.6146850585938,815.9102783203125
/muse/eeg,822.4901733398438,834.0050048828125,866.9046630859375,810.9752807617188
/muse/eeg,829.070068359375,835.6500244140625,863.6146850585938,815.9102783203125
/muse/eeg,819.2001953125,834.0050048828125,861.9697265625,810.9752807617188
/muse/eeg,822.4901733398438,832.3600463867188,861.9697265625,810.9752807617188
/muse/eeg,832.3600463867188,832.3600463867188,857.0347290039062,837.2949829101562
/muse/eeg,838.9400024414062,835.6500244140625,857.0347290039062,837.2949829101562
/muse/eeg,847.1648559570312,834.0050048828125,857.0347290039062,850.454833984375
/muse/eeg,829.070068359375,832.3600463867188,853.7448120117188,837.2949829101562
/muse/eeg,817.5552368164062,829.070068359375,857.0347290039062,838.9400024414062
/muse/eeg,809.330322265625,827.4251098632812,855.3897705078125,827.4251098632812
/muse/eeg,819.2001953125,830.715087890625,857.0347290039062,832.3600463867188
/muse/eeg,824.1351318359375,834.0050048828125,850.454833984375,822.4901733398438
/muse/eeg,825.7801513671875,832.3600463867188,843.8749389648438,817.5552368164062
/muse/eeg,853.7448120117188,838.9400024414062,852.0997924804688,827.4251098632812
/muse/eeg,865.2596435546875,837.2949829101562,855.3897705078125,820.84521484375
/muse/eeg,860.32470703125,837.2949829101562,850.454833984375,820.84521484375
/muse/eeg,853.7448120117188,838.9400024414062,853.7448120117188,820.84521484375
/muse/eeg,829.070068359375,832.3600463867188,848.8098754882812,822.4901733398438
/muse/eeg,830.715087890625,834.0050048828125,853.7448120117188,827.4251098632812
/muse/eeg,842.2299194335938,830.715087890625,857.0347290039062,832.3600463867188
/muse/eeg,832.3600463867188,829.070068359375,855.3897705078125,822.4901733398438
/muse/eeg,827.4251098632812,829.070068359375,855.3897705078125,825.7801513671875
/muse/eeg,797.8154907226562,830.715087890625,853.7448120117188,817.5552368164062
/muse/eeg,810.9752807617188,830.715087890625,853.7448120117188,820.84521484375
/muse/eeg,802.7504272460938,829.070068359375,853.7448120117188,824.1351318359375
/muse/eeg,810.9752807617188,832.3600463867188,850.454833984375,829.070068359375
/muse/eeg,815.9102783203125,827.4251098632812,847.1648559570312,830.715087890625
/muse/eeg,809.330322265625,827.4251098632812,855.3897705078125,825.7801513671875
/muse/eeg,834.0050048828125,824.1351318359375,855.3897705078125,827.4251098632812
/muse/eeg,834.0050048828125,827.4251098632812,850.454833984375,830.715087890625
/muse/eeg,810.9752807617188,837.2949829101562,847.1648559570312,804.3953857421875
/muse/eeg,806.0403442382812,838.9400024414062,845.5198974609375,810.9752807617188
/muse/eeg,820.84521484375,838.9400024414062,847.1648559570312,815.9102783203125
/muse/eeg,827.4251098632812,835.6500244140625,852.0997924804688,824.1351318359375
/muse/eeg,809.330322265625,838.9400024414062,852.0997924804688,802.7504272460938
/muse/eeg,806.0403442382812,835.6500244140625,847.1648559570312,801.1054077148438
/muse/eeg,817.5552368164062,835.6500244140625,843.8749389648438,810.9752807617188
/muse/eeg,817.5552368164062,834.0050048828125,850.454833984375,817.5552368164062
/muse/eeg,830.715087890625,832.3600463867188,848.8098754882812,829.070068359375
/muse/eeg,830.715087890625,830.715087890625,848.8098754882812,825.7801513671875
/muse/eeg,830.715087890625,832.3600463867188,857.0347290039062,822.4901733398438
/muse/eeg,829.070068359375,825.7801513671875,853.7448120117188,835.6500244140625
/muse/eeg,829.070068359375,825.7801513671875,857.0347290039062,845.5198974609375
/muse/eeg,834.0050048828125,834.0050048828125,855.3897705078125,835.6500244140625
/muse/eeg,837.2949829101562,832.3600463867188,855.3897705078125,820.84521484375
/muse/eeg,843.8749389648438,835.6500244140625,857.0347290039062,829.070068359375
/muse/eeg,827.4251098632812,832.3600463867188,853.7448120117188,832.3600463867188
/muse/eeg,819.2001953125,827.4251098632812,852.0997924804688,820.84521484375
/muse/eeg,832.3600463867188,829.070068359375,855.3897705078125,829.070068359375
/muse/eeg,838.9400024414062,829.070068359375,855.3897705078125,829.070068359375
/muse/eeg,847.1648559570312,830.715087890625,857.0347290039062,848.8098754882812
/muse/eeg,830.715087890625,827.4251098632812,858.6797485351562,829.070068359375
/muse/eeg,832.3600463867188,829.070068359375,855.3897705078125,830.715087890625
/muse/eeg,840.5849609375,829.070068359375,858.6797485351562,830.715087890625
/muse/eeg,843.8749389648438,827.4251098632812,860.32470703125,840.5849609375
/muse/eeg,825.7801513671875,825.7801513671875,857.0347290039062,835.6500244140625
/muse/eeg,832.3600463867188,830.715087890625,861.9697265625,832.3600463867188
/muse/eeg,840.5849609375,830.715087890625,858.6797485351562,838.9400024414062
/muse/eeg,840.5849609375,835.6500244140625,860.32470703125,830.715087890625
/muse/eeg,840.5849609375,830.715087890625,857.0347290039062,847.1648559570312
/muse/eeg,830.715087890625,829.070068359375,857.0347290039062,825.7801513671875
/muse/eeg,857.0347290039062,832.3600463867188,863.6146850585938,842.2299194335938
/muse/eeg,861.9697265625,830.715087890625,861.9697265625,847.1648559570312
/muse/eeg,870.194580078125,834.0050048828125,866.9046630859375,848.8098754882812
/muse/eeg,852.0997924804688,832.3600463867188,860.32470703125,845.5198974609375
/muse/eeg,847.1648559570312,837.2949829101562,861.9697265625,855.3897705078125
/muse/eeg,847.1648559570312,837.2949829101562,865.2596435546875,853.7448120117188
/muse/eeg,855.3897705078125,837.2949829101562,863.6146850585938,838.9400024414062
/muse/eeg,830.715087890625,832.3600463867188,860.32470703125,843.8749389648438
/muse/eeg,840.5849609375,832.3600463867188,863.6146850585938,829.070068359375
/muse/eeg,853.7448120117188,835.6500244140625,858.6797485351562,829.070068359375
/muse/eeg,845.5198974609375,834.0050048828125,855.3897705078125,830.715087890625
/muse/eeg,858.6797485351562,840.5849609375,860.32470703125,838.9400024414062
/muse/eeg,848.8098754882812,838.9400024414062,857.0347290039062,837.2949829101562
/muse/eeg,840.5849609375,832.3600463867188,858.6797485351562,822.4901733398438
/muse/eeg,852.0997924804688,837.2949829101562,865.2596435546875,840.5849609375
/muse/eeg,852.0997924804688,837.2949829101562,857.0347290039062,847.1648559570312
/muse/eeg,842.2299194335938,834.0050048828125,858.6797485351562,843.8749389648438
/muse/eeg,853.7448120117188,838.9400024414062,860.32470703125,843.8749389648438
/muse/eeg,861.9697265625,837.2949829101562,858.6797485351562,840.5849609375
/muse/eeg,848.8098754882812,835.6500244140625,858.6797485351562,837.2949829101562
/muse/eeg,843.8749389648438,830.715087890625,858.6797485351562,838.9400024414062
/muse/eeg,822.4901733398438,830.715087890625,860.32470703125,835.6500244140625
/muse/eeg,830.715087890625,829.070068359375,858.6797485351562,834.0050048828125
/muse/eeg,832.3600463867188,830.715087890625,858.6797485351562,834.0050048828125
/muse/eeg,840.5849609375,835.6500244140625,860.32470703125,853.7448120117188
/muse/eeg,838.9400024414062,832.3600463867188,863.6146850585938,853.7448120117188
/muse/eeg,837.2949829101562,832.3600463867188,863.6146850585938,848.8098754882812
/muse/eeg,830.715087890625,830.715087890625,866.9046630859375,843.8749389648438
/muse/eeg,825.7801513671875,830.715087890625,857.0347290039062,842.2299194335938
/muse/eeg,827.4251098632812,827.4251098632812,858.6797485351562,843.8749389648438
/muse/eeg,838.9400024414062,835.6500244140625,860.32470703125,840.5849609375
/muse/eeg,829.070068359375,832.3600463867188,850.454833984375,840.5849609375
/muse/eeg,853.7448120117188,829.070068359375,858.6797485351562,857.0347290039062
/muse/eeg,827.4251098632812,825.7801513671875,861.9697265625,852.0997924804688
/muse/eeg,796.1704711914062,832.3600463867188,855.3897705078125,825.7801513671875
/muse/eeg,797.8154907226562,835.6500244140625,852.0997924804688,830.715087890625
/muse/eeg,799.46044921875,834.0050048828125,857.0347290039062,830.715087890625
/muse/eeg,817.5552368164062,837.2949829101562,865.2596435546875,842.2299194335938
/muse/eeg,817.5552368164062,835.6500244140625,863.6146850585938,829.070068359375
/muse/eeg,802.7504272460938,832.3600463867188,863.6146850585938,834.0050048828125
/muse/eeg,822.4901733398438,837.2949829101562,860.32470703125,827.4251098632812
/muse/eeg,824.1351318359375,829.070068359375,853.7448120117188,835.6500244140625
/muse/eeg,825.7801513671875,830.715087890625,857.0347290039062,840.5849609375
/muse/eeg,822.4901733398438,838.9400024414062,857.0347290039062,827.4251098632812
/muse/eeg,829.070068359375,834.0050048828125,852.0997924804688,830.715087890625
/muse/eeg,830.715087890625,834.0050048828125,855.3897705078125,832.3600463867188
/muse/eeg,822.4901733398438,830.715087890625,855.3897705078125,837.2949829101562
/muse/eeg,829.070068359375,832.3600463867188,858.6797485351562,829.070068359375
/muse/eeg,825.7801513671875,834.0050048828125,861.9697265625,847.1648559570312
/muse/eeg,832.3600463867188,830.715087890625,865.2596435546875,843.8749389648438
/muse/eeg,835.6500244140625,830.715087890625,863.6146850585938,842.2299194335938
/muse/eeg,832.3600463867188,829.070068359375,860.32470703125,848.8098754882812
/muse/eeg,837.2949829101562,830.715087890625,860.32470703125,840.5849609375
/muse/eeg,825.7801513671875,829.070068359375,861.9697265625,835.6500244140625
/muse/eeg,815.9102783203125,827.4251098632812,861.9697265625,832.3600463867188
/muse/eeg,835.6500244140625,832.3600463867188,863.6146850585938,847.1648559570312
/muse/eeg,827.4251098632812,834.0050048828125,860.32470703125,847.1648559570312
/muse/eeg,853.7448120117188,835.6500244140625,861.9697265625,857.0347290039062
/muse/eeg,840.5849609375,837.2949829101562,863.6146850585938,834.0050048828125
/muse/eeg,832.3600463867188,830.715087890625,855.3897705078125,840.5849609375
/muse/eeg,837.2949829101562,832.3600463867188,858.6797485351562,820.84521484375
/muse/eeg,824.1351318359375,829.070068359375,860.32470703125,819.2001953125
/muse/eeg,830.715087890625,829.070068359375,858.6797485351562,848.8098754882812
/muse/eeg,820.84521484375,830.715087890625,860.32470703125,837.2949829101562
/muse/eeg,834.0050048828125,832.3600463867188,863.6146850585938,830.715087890625
/muse/eeg,829.070068359375,834.0050048828125,858.6797485351562,830.715087890625
/muse/eeg,829.070068359375,834.0050048828125,855.3897705078125,832.3600463867188
/muse/eeg,832.3600463867188,835.6500244140625,860.32470703125,835.6500244140625
/muse/eeg,840.5849609375,837.2949829101562,858.6797485351562,843.8749389648438
/muse/eeg,845.5198974609375,835.6500244140625,858.6797485351562,847.1648559570312
/muse/eeg,843.8749389648438,837.2949829101562,860.32470703125,842.2299194335938
/muse/eeg,832.3600463867188,837.2949829101562,857.0347290039062,847.1648559570312
/muse/eeg,824.1351318359375,837.2949829101562,853.7448120117188,835.6500244140625
/muse/eeg,835.6500244140625,840.5849609375,857.0347290039062,838.9400024414062
/muse/eeg,832.3600463867188,837.2949829101562,855.3897705078125,832.3600463867188
/muse/eeg,834.0050048828125,835.6500244140625,858.6797485351562,837.2949829101562
/muse/eeg,835.6500244140625,835.6500244140625,860.32470703125,847.1648559570312
/muse/eeg,850.454833984375,835.6500244140625,863.6146850585938,858.6797485351562
/muse/eeg,835.6500244140625,840.5849609375,860.32470703125,858.6797485351562
/muse/eeg,827.4251098632812,834.0050048828125,855.3897705078125,837.2949829101562
/muse/eeg,832.3600463867188,829.070068359375,858.6797485351562,847.1648559570312
/muse/eeg,843.8749389648438,825.7801513671875,861.9697265625,847.1648559570312
/muse/eeg,824.1351318359375,830.715087890625,861.9697265625,820.84521484375
/muse/eeg,812.6203002929688,834.0050048828125,858.6797485351562,824.1351318359375
/muse/eeg,824.1351318359375,832.3600463867188,852.0997924804688,822.4901733398438
/muse/eeg,806.0403442382812,832.3600463867188,848.8098754882812,814.2652587890625
/muse/eeg,814.2652587890625,837.2949829101562,852.0997924804688,830.715087890625
/muse/eeg,832.3600463867188,838.9400024414062,857.0347290039062,827.4251098632812
/muse/eeg,802.7504272460938,838.9400024414062,855.3897705078125,812.6203002929688
/muse/eeg,812.6203002929688,832.3600463867188,853.7448120117188,824.1351318359375
/muse/eeg,834.0050048828125,834.0050048828125,853.7448120117188,837.2949829101562
/muse/eeg,824.1351318359375,830.715087890625,852.0997924804688,842.2299194335938
/muse/eeg,825.7801513671875,834.0050048828125,855.3897705078125,830.715087890625
/muse/eeg,827.4251098632812,830.715087890625,855.3897705078125,838.9400024414062
/muse/eeg,817.5552368164062,830.715087890625,853.7448120117188,837.2949829101562
/muse/eeg,819.2001953125,835.6500244140625,855.3897705078125,840.5849609375
/muse/eeg,837.2949829101562,832.3600463867188,858.6797485351562,838.9400024414062
/muse/eeg,832.3600463867188,832.3600463867188,860.32470703125,835.6500244140625
/muse/eeg,827.4251098632812,834.0050048828125,858.6797485351562,835.6500244140625
/muse/eeg,825.7801513671875,830.715087890625,858.6797485351562,848.8098754882812
/muse/eeg,825.7801513671875,830.715087890625,857.0347290039062,842.2299194335938
/muse/eeg,817.5552368164062,827.4251098632812,860.32470703125,842.2299194335938
/muse/eeg,832.3600463867188,834.0050048828125,866.9046630859375,853.7448120117188
/muse/eeg,837.2949829101562,834.0050048828125,865.2596435546875,845.5198974609375
/muse/eeg,843.8749389648438,830.715087890625,857.0347290039062,855.3897705078125
/muse/eeg,825.7801513671875,827.4251098632812,855.3897705078125,842.2299194335938
/muse/eeg,834.0050048828125,827.4251098632812,853.7448120117188,842.2299194335938
/muse/eeg,825.7801513671875,829.070068359375,855.3897705078125,843.8749389648438
/muse/eeg,820.84521484375,827.4251098632812,857.0347290039062,840.5849609375
/muse/eeg,814.2652587890625,825.7801513671875,852.0997924804688,825.7801513671875
/muse/eeg,825.7801513671875,830.715087890625,855.3897705078125,840.5849609375
